Time,POz,Oz,P3,P4,O1,O2
4,1.070555147462633,1.5057874978437358,2.831704081067239,4.4598432423260945,0.3452163658828001,0.4631042005611764
8,0.5367879573177545,4.748912603151298,8.41889150046222,9.805124076440409,5.979238137250973,2.8863827465675214
12,-0.028649421493207032,7.879778013218721,13.821954391679503,14.979518056760451,11.420053124818494,5.218214040177149
16,-0.653845051058761,10.793281489169557,18.869467062978213,19.82324488924515,16.487307205748383,7.37360830344965
20,-1.3604937593090618,13.397594154271895,23.413696785561495,24.197239001864805,21.02473547113553,9.279499271027584
24,-2.1622386716386996,15.61865362133646,27.33880182490918,27.99033145150386,24.90873437087181,10.878666783869075
28,-3.064111354963994,17.40296929518028,30.56587404799341,31.123729985834377,28.05389081811553,12.132040641447707
32,-4.062852118638394,18.718880587210876,33.05489070329963,33.55286785309426,30.415455189308858,13.019502930333095
36,-5.1479876104957825,19.55633094082923,34.803749978622434,35.26675812836542,31.988842021264308,13.539284989324452
40,-6.303592214340643,19.925220262262926,35.844686799675614,36.285115449319456,32.80639735163878,13.706113415989353
44,-7.510487096763309,19.852655621812993,36.23865861110968,36.653812334761305,32.93200451133857,13.548472368370444
48,-8.74842723243482,19.37968061431215,36.06854625344912,36.43945564923311,32.454362443685454,13.105481333473902
52,-9.997882297753545,18.55799284235902,35.431967891553896,35.72373361599945,31.47970963147767,12.423743735313236
56,-11.241313615353661,17.446809559737172,34.43421641668591,34.59782366014057,30.124485476083,11.554243707995406
60,-12.46406798959562,16.109800318609526,33.181626124995766,33.15694926765034,28.508245519887893,10.5492676577658
64,-13.654948046968151,14.61209604603738,31.77571193566091,31.49528442403576,26.747198107634095,9.459480756394875
68,-14.806354501835811,13.017591992135918,30.308493411925816,29.701573189106725,24.948784326764013,8.331439457821437
72,-15.913931337978154,11.386748802058271,28.859245653316556,27.855756041066225,23.207547416043855,7.205731271795207
76,-16.97588187480233,9.774863671682386,27.492577846598078,26.026626635581984,21.60223387075657,6.115711545736519
80,-17.992256413270646,8.2306480350151,26.257554193380592,24.270394124851887,20.19393710049428,5.0867474141220095
84,-18.964356380264785,6.795077671732019,25.187675645051257,22.630115475237748,19.025208908138875,4.136026159859292
88,-19.894156619276053,5.500661411691102,24.30169486071892,21.13605249913543,18.120169150550403,3.27306285299532
92,-20.783630325959997,4.371219217658057,23.605164729164834,19.806862189984166,17.485527031483507,2.5008520537735963
96,-21.634069844110197,3.4220178481315653,23.092393850128634,18.65126426266865,17.11221957308241,1.817322447214658
100,-22.44562805159105,2.660004205662372,22.7484210821754,17.66977065192343,16.97736304987032,1.2166951985530612
104,-23.217174736628305,2.0840551282813617,22.550850438671656,16.856296869448702,17.046446942153995,0.6905764650078317
108,-23.946349654087076,1.685398523649176,22.471655337665723,16.19972501207138,17.275898917689542,0.22885970498995986
112,-24.62968336778026,1.448354149586527,22.47907045691983,15.685463469254866,17.616065328414578,-0.17947725198763978
116,-25.262837806914884,1.3513303854139216,22.539490616584814,15.296835423389247,18.014400331715223,-0.5457388480025162
120,-25.841102008411923,1.3679133911504728,22.61920276207877,15.016070841770885,18.418565276048675,-0.8811195161383222
124,-26.360112950539854,1.4680434612773428,22.685920588037714,14.82489151751553,18.779295468459004,-1.1964590247670552
128,-26.81656692980515,1.6194507348765457,22.71024106210285,14.704889762202368,19.053030126047904,-1.5019356994290487
132,-27.208727085587306,1.7894270273954866,22.667045071588625,14.637837799851967,19.204200734415497,-1.8066222647815648
136,-27.536772725479793,1.9467188488668092,22.536619641330542,14.605846830656706,19.206877527063817,-2.1180680112172805
140,-27.80315091937698,2.0631984803849743,22.30522239740876,14.59126287342008,19.045498461886012,-2.442117079204952
144,-28.012917482380317,2.1151670424214775,21.965060400910076,14.576425275046738,18.714701253797045,-2.782978600035012
148,-28.173825137185094,2.084409341387593,21.513940114046257,14.54362358451354,18.218550546727613,-3.1433889357180353
152,-28.295949963138366,1.9591232956260727,20.954844269570685,14.475483439947421,17.569432963228586,-3.524760967374708
156,-28.390915767764902,1.7346206538260336,20.295464496797827,14.355710130538187,16.78668711400405,-3.927385116506997
160,-28.470952091382706,1.4135777436480732,19.5476079469894,14.169983189268379,15.894964087717995,-4.350760008989215
164,-28.547933371208554,1.0057721936653499,18.726535399614068,13.906936239870678,14.922466471047645,-4.793950790289471
168,-28.63240029469176,0.5274442366979848,17.85041703860809,13.559286876412907,13.89933415424793,-5.255761773306421
172,-28.73262784092604,0.0003748093861425282,16.939944250393477,13.125037374107778,12.856308743855784,-5.734658363073832
176,-28.854007963048023,-0.5494543161515955,16.01784438623675,12.608394912099826,11.823551311593702,-6.228619640236371
180,-28.99903084215747,-1.0938059751515365,15.107987596625184,12.020030235013332,10.829424123032705,-6.73514202807885
184,-29.167851329047256,-1.604653656172833,14.234064703806153,11.37659383214959,9.899243871949398,-7.251404616239332
188,-29.359094815882926,-2.056762581539513,13.418136291710745,10.69971208787431,9.05420966222461,-7.7744224017417
192,-29.570529771655046,-2.429955875192871,12.679362906528352,10.014678054804538,8.310663402375537,-8.301078252213012
196,-29.79948761979717,-2.7108687502217825,12.032988171850295,9.348836755660225,7.679646852854226,-8.828117678816197
200,-30.04311086934571,-2.8941470054967007,11.489513564271334,8.729604764170885,7.166658984210803,-9.352225564752791
204,-30.298466002735392,-2.9829722173434456,11.054123053198609,8.182274110005856,6.771652211161095,-9.870134280505619
208,-30.56244800019962,-2.98872631227482,10.726547070335691,7.727952282914301,6.489392004054656,-10.378597832693789
212,-30.83148410477004,-2.929788441540372,10.501440666472181,7.381914481806351,6.3101548881713265,-10.874198587794847
216,-31.101257526517635,-2.8297656708923213,10.36909737316866,7.152409403931207,6.220516761495329,-11.3531784166334
220,-31.366718975270455,-2.715554702887956,10.31624917088282,7.039889779564813,6.203987522795531,-11.811516138300846
224,-31.62242639002454,-2.6154194241015762,10.326894078570357,7.03679830767326,6.241504641375693,-12.245272628754892
228,-31.863003572251912,-2.5570364145492754,10.383271208435037,7.128142102500551,6.312011043586623,-12.651048000561204
232,-32.083522222418985,-2.565503672540504,10.467013271238427,7.292894270872638,6.393273527525759,-13.026437759079439
236,-32.279829097383065,-2.6615451390400975,10.560262201952428,7.505920245009265,6.462871206731809,-13.370515653285807
240,-32.44893886911768,-2.8602268406522704,10.646471708049607,7.74000482158,6.49920978548399,-13.684352101268757
244,-32.589451801338505,-3.1702818801528805,10.710846149463714,7.96775820324677,6.482563368061961,-13.971385876588402
248,-32.70177192953769,-3.593876591131516,10.740602965092469,8.163409757778734,6.3962440385661585,-14.237377019007916
252,-32.78798286807882,-4.126649266775088,10.725213666635975,8.304465736352968,6.227843619009678,-14.489857740347235
256,-32.851509002551616,-4.75805615012979,10.65656935485326,8.37302167529862,5.970252033460762,-14.737280163370642
260,-32.89680469084704,-5.472133096070874,10.528959184121135,8.356518353718771,5.622156878189823,-14.988125157145856
264,-32.9291318942611,-6.248597831956258,10.33894355784866,8.247983842341911,5.187997397546384,-15.25005840080778
268,-32.95426284169987,-7.064033046691066,10.085372576577155,8.04601272007592,4.677569914910548,-15.529074661896606
272,-32.977982853287216,-7.892973514019946,9.769670447702719,7.75463921204671,4.105423283702626,-15.828658882796628
276,-33.00551451287218,-8.708969939115622,9.396194289258696,7.383001990455772,3.4899876169730297,-16.14917271076561
280,-33.04110585434387,-9.485788462492035,8.972348699071587,6.9446235596196955,2.8523614894457725,-16.487671392310688
284,-33.0878656457289,-10.198726248543037,8.508328576814403,6.456327339366848,2.2148854929222432,-16.83814524837882
288,-33.147714355031944,-10.825839153561917,8.016607144979032,5.937009608329251,1.5997711208911056,-17.192022984816802
292,-33.22133550806504,-11.348936271671079,7.511301597850137,5.406420037329004,1.0279310267768373,-17.53884413795503
296,-33.30820232652697,-11.75438782404497,7.007414148017454,4.883915989581019,0.5179389298736377,-17.867147508404674
300,-33.406808896376106,-12.033811860763349,6.51994818164338,4.387156662843976,0.08503923299490553,-18.165576661915686
304,-33.515043752383114,-12.18450224776255,6.063082611392839,3.9309214090703204,-0.2596636715325277,-18.42399640533495
308,-33.630466424730464,-12.209336221777718,5.6496696071653645,3.5263565493926956,-0.5095855574402438,-18.634327935342004
312,-33.75035509924681,-12.116093963581756,5.2911014400505305,3.180757815400527,-0.6625332342703342,-18.790994052077373
316,-33.87168029151137,-11.91646502751787,4.997271658413077,2.8976753326465388,-0.720272322117701,-18.89112086093919
320,-33.9912671601069,-11.62512620869091,4.776302977321103,2.677049979430059,-0.6880657494993208,-18.934680157675515
324,-34.106203966875945,-11.259046211595294,4.633989611606266,2.5153174255197883,-0.5742593425516789,-18.92457464385699
328,-34.214307195056975,-10.83690191741946,4.5731776940527205,2.405634872788644,-0.3898177523965236,-18.866540618188086
332,-34.31447367134032,-10.378485233740223,4.593295009268393,2.3383284106213837,-0.14779064777868334,-18.76884206732379
336,-34.406968418962116,-9.904161820159654,4.690050710188397,2.3014601260184615,0.13713531995187703,-18.641894423377302
340,-34.49377448565447,-9.434491877124902,4.855275967065625,2.2813997287490486,0.448874008710967,-18.49792835543448
344,-34.578934714276876,-8.989939039429824,5.077031018664825,2.263492847459136,0.7700873349426577,-18.350605715920015
348,-34.6686069636092,-8.590437466895574,5.340186510925318,2.233031515664645,1.0825063930904057,-18.214411407801833
352,-34.77063237985637,-8.254707084319106,5.627487579138414,2.1765298628810426,1.3675282228102803,-18.103816210756616
356,-34.893708292941305,-7.999481984970055,5.920805040917739,2.082991549214878,1.606921946472484,-18.032439245536953
360,-35.046417683421524,-7.838909230682103,6.202220065656772,1.9448023408763375,1.7834363356367982,-18.01244218668149
364,-35.236246389007306,-7.784177243148666,6.454837320318148,1.7581486621653821,1.881312709078396,-18.05415752633506
368,-35.468555086576444,-7.843211511524143,6.663460962593202,1.5231145846097423,1.8868686404584114,-18.165780023485954
372,-35.74554124355176,-8.020311171054663,6.815226738870874,1.243568461174706,1.789215992018289,-18.353027552025328
376,-36.06544380855805,-8.315808026704978,6.900094321802945,0.9267609132694082,1.5809743695162786,-18.618849788125683
380,-36.42228292077517,-8.725890536479122,6.911097528311754,0.5825590580790603,1.25883512841808,-18.963262127108088
384,-36.8061775630481,-9.242558092580726,6.844472259173514,0.22248286531641645,0.8240249815024792,-19.383215036409116
388,-37.20401341404196,-9.853522750443858,6.699920360286907,-0.14112985715800427,0.28281306044432347,-19.87234723303035
392,-37.60023064130935,-10.541998030799727,6.48108683307077,-0.49566063934689286,-0.3529773606195578,-20.420657471717853
396,-37.97770135131603,-11.286581303464196,6.196004128350898,-0.8285815495356333,-1.065746812597418,-21.014360182857963
400,-38.31875665831481,-12.061519560117107,5.857161663023022,-1.127883216090069,-1.8324858803599682,-21.636174590640998
404,-38.60628014578965,-12.837451918157479,5.481085314703854,-1.382594980113185,-2.6257643847107106,-22.26604533086428
408,-38.82463939946808,-13.582504634697239,5.08756753380547,-1.5832500806355496,-3.4151490114932757,-22.882104459217715
412,-38.96033301745741,-14.263638122040689,4.6986867187699595,-1.7222018854320265,-4.168877186623173,-23.46175138818601
416,-39.00248763236051,-14.84831535212201,4.337587984451102,-1.7938598864731121,-4.855746874460437,-23.982885259630248
420,-38.943418567972415,-15.306558684683024,4.026983664092559,-1.7949157183992588,-5.447150053537129,-24.425299828596327
424,-38.7792658060989,-15.613207069876957,3.7875383435019625,-1.72446324358414,-5.918985898466546,-24.77205464196091
428,-38.510501106719644,-15.749964897477868,3.636440057608472,-1.583855967385003,-6.253127268726576,-25.01054894358848
432,-38.142143173240974,-15.706907261043657,3.586302657227795,-1.3763421563374338,-6.438332659764836,-25.13319362638129
436,-37.68373372572018,-15.483356597775279,3.644276749854058,-1.1067591109403951,-6.470765504202951,-25.137797848398712
440,-37.14921093367754,-15.088155667638473,3.811221860778376,-0.7815338807497614,-6.354287807404029,-25.0277809052147
444,-36.556652443545,-14.539251906723976,4.0810543062643285,-0.4089273985954954,-6.100452906725819,-24.81211259911217
448,-35.927679432451896,-13.862436565840804,4.4406002235032895,0.0007895511543692585,-5.727957278947481,-24.504774121578862
452,-35.28638333948716,-13.089278785906131,4.870176035664717,0.43547096909658434,-5.261435960680471,-24.123686531058052
456,-34.65789281279895,-12.25461812165536,5.344824707561006,0.8815352793318519,-4.729741699374288,-23.689296320877343
460,-34.066827482823506,-11.394079953074353,5.836000069373517,1.3245998208195027,-4.163938773211839,-23.22306149748157
464,-33.53576720976492,-10.541871517462607,6.313594896917641,1.7503008529239636,-3.5951392151805126,-22.745947012144583
468,-33.0837361895608,-9.728896885033482,6.748281780378067,2.145336721436822,-3.0522632591675656,-22.27696703570423
472,-32.72479825648813,-8.981260072433471,7.1139684345266945,2.4985876217985905,-2.559959312795768,-21.831931006645974
476,-32.46706511112097,-8.319377908896643,7.38993206653623,2.8019420409712055,-2.1370756339217976,-21.422675379108206
480,-32.31241397184981,-7.75786980602077,7.5622236480065945,3.0505145769286295,-1.7959654487077132,-21.056955855452035
484,-32.25692357557158,-7.306076379901362,7.624257234518085,3.2422734382578837,-1.5425715917741278,-20.73888566390934
488,-32.29176153513301,-6.968805971878776,7.576789263127833,3.3773685286516484,-1.3770033678481857,-20.46962591464335
492,-32.40427232849052,-6.7469963723095105,7.427472507909678,3.457413590513592,-1.2943853890682884,-20.24812593920336
496,-32.57922535877524,-6.638268061376865,7.1899725703076,3.4847779380247976,-1.2859460257927369,-20.07190084181381
500,-32.80025508397664,-6.637468375313243,6.882601822148304,3.4619024926042004,-1.3403221000893812,-19.937851615961634
504,-33.05135546277752,-6.7371676325233505,6.526623846859665,3.3908063319651593,-1.4448824518558971,-19.84298535791036
508,-33.318138667622215,-6.927951208126276,6.144522795749795,3.2730065436169973,-1.586801965458574,-19.78484102585333
512,-33.5886819580767,-7.1984968217546355,5.758400369312956,3.109855077049526,-1.753806614673961,-19.761603017957277
516,-33.854046492805494,-7.535687080295127,5.388430701261574,2.903010059774725,-1.9347523784895178,-19.772092398958755
520,-34.10862872984881,-7.92504633780886,5.05129444202278,2.654737399466975,-2.120203814174497,-19.815803422015914
524,-34.3503159182881,-8.351534830731032,4.758753560596066,2.3679939970082446,-2.302959626196704,-19.89293847328856
528,-34.580245203657526,-8.80047300136777,4.516701498046116,2.046451887137638,-2.4783345203775444,-20.0042766964826
532,-34.80207747656678,-9.258379385486469,4.324892078470374,1.694547449832019,-2.644127681734533,-20.150843740365506
536,-35.020976809311684,-9.713690429317085,4.177273232426657,1.3174391597615758,-2.800409951860407,-20.33354629117073
540,-35.24259235142225,-10.15737977095315,4.062759583826523,0.9207527051880241,-2.9492657146204104,-20.552928631019455
544,-35.47216914827478,-10.583337147117504,3.966417676440277,0.5102109387035502,-3.094446904098515,-20.80902033834377
548,-35.71373289896866,-10.988277912344056,3.871118201780587,0.09137841158358373,-3.2408207636544915,-21.10114498884169
552,-35.96935252889218,-11.371150901643297,3.7595302800432515,-0.3304054715979465,-3.3936625914152416,-21.427682025696583
556,-36.23867200310101,-11.732321352184576,3.616078613049114,-0.7500738535623319,-3.5580454629842677,-21.7859304557854
560,-36.518913144587344,-12.072877034180914,3.4284755194306973,-1.163035830169035,-3.7385311260857845,-22.172178272600704
564,-36.80532050885717,-12.394178215847788,3.1886966180175627,-1.5654810180856151,-3.9391117401102944,-22.581885181793336
568,-37.09181923698119,-12.697547141158642,2.89348827985565,-1.9545829074015375,-4.163201100346178,-23.00980700192846
572,-37.371722851644606,-12.984028865571933,2.5444569817348133,-2.3285324036723694,-4.41358872161759,-23.450045386794248
576,-37.63853542721384,-13.25433393747216,2.147643647932367,-2.6865551921100175,-4.692451747178391,-23.896192771759036
580,-37.886924583522394,-13.509082531795821,1.7125282546359626,-3.0290599263687388,-5.001488657774973,-24.341704379644582
584,-38.113729553549575,-13.7492531067216,1.2506580986417672,-3.357832065873768,-5.342030952364865,-24.780409223333216
588,-38.31869506227604,-13.976579742888873,0.774245302010884,-3.6760546612754643,-5.714911368411384,-25.206955235678972
592,-38.50473001324616,-14.193753691656726,0.29494581364229333,-3.988089198194191,-6.120062134591169,-25.61710422278992
596,-38.677742767533566,-14.404496064340178,-0.1771837584141399,-4.299167232973355,-6.556050568757202,-26.007953258317688
600,-38.846181246983335,-14.613571501643845,-0.6345472518396293,-4.615111820832979,-7.019742045073613,-26.378118620961104
604,-39.02025622451538,-14.826611047753142,-1.072487720114977,-4.941969882339709,-7.50606567697478,-26.727737405361893
608,-39.21073513847372,-15.049528607898212,-1.4891367413668901,-5.285345919694176,-8.007763853588425,-27.058103856728025
612,-39.42737083079967,-15.287538349990903,-1.8846537573645032,-5.649456523427315,-8.515171219761982,-27.370971119274117
616,-39.67730609986257,-15.544090680982215,-2.2602003788482334,-6.036216874613218,-9.016258427788395,-27.667785823262122
620,-39.96384400735803,-15.820092807287661,-2.6170278949207,-6.44467504594194,-9.497107750340264,-27.9491142897498
624,-40.285743887216604,-16.113538992388715,-2.955804687238342,-6.870844954032459,-9.942721575039737,-28.21430990441729
628,-40.63698086279432,-16.419460821300717,-3.276116790005995,-7.307801577634705,-10.337927681913076,-28.461346698472276
632,-41.00692767403382,-16.73014812703154,-3.576150828160109,-7.745990691001095,-10.668282622433377,-28.686833302774456
636,-41.38105207153134,-17.03573374769352,-3.852717798009946,-8.173858687980191,-10.921052298989189,-28.886327723708007
640,-41.7421757089439,-17.325183360980876,-4.101691353304719,-8.578825699171304,-11.086285740735587,-29.054968426505578
644,-42.07208764848648,-17.587482549954657,-4.31865316756965,-8.948364687572282,-11.15776434338126,-29.18820068558968
648,-42.353146481436816,-17.812677386280654,-4.49941073547373,-9.27086016614501,-11.133532003599521,-29.2823033218449
652,-42.56964789145413,-17.992596205991916,-4.640260734219635,-9.536154912646287,-11.015924885245026,-29.334619812360582
656,-42.70900094799471,-18.1213586475245,-4.738169521575377,-9.73598149061072,-10.811278792673342,-29.34363958629286
660,-42.762815407313084,-18.195826038880746,-4.791078057469677,-9.864475447531674,-10.529502241301127,-29.309087631582972
664,-42.727810261589816,-18.215935847210616,-4.798303236100869,-9.918711925606537,-10.183506463261896,-29.231997467413894
668,-42.60630461342006,-18.184708060525637,-4.760833060272964,-9.899048589242273,-9.78839029505843,-29.114643925566135
672,-42.4061703397695,-18.10784364944095,-4.681420003759281,-9.809187924501638,-9.360436466572734,-28.960336265208422
676,-42.140360239603794,-17.99308231034166,-4.564581956907802,-9.656078553436535,-8.916167964399113,-28.77322755981435
680,-41.82616753656246,-17.849518368692372,-4.41660757369158,-9.449755049625416,-8.471662529329562,-28.558239429253376
684,-41.484198613758544,-17.68687416247988,-4.245445504795619,-9.203007097961004,-8.04208547862936,-28.320993577049244
688,-41.13694426003028,-17.514619872857185,-4.060264289154167,-8.930697066601219,-7.641284359082391,-28.06757280774909
692,-40.807010008841075,-17.341003394246698,-3.8706774955788066,-8.648759459834496,-7.281424149945334,-27.80411473360791
696,-40.51533100869525,-17.172298799637204,-3.685904127940012,-8.373167047613506,-6.972805042413626,-27.53644295984846
700,-40.27972811114228,-17.012556178952856,-3.514144047466884,-8.119117143821335,-6.723933072208483,-27.26990340057466
704,-40.11391975033842,-16.863831791431394,-3.3621983087844924,-7.9004186365263225,-6.541675642139136,-27.00935265581259
708,-40.026881836406034,-16.72663799514174,-3.2351819263806116,-7.728896076430321,-6.431245741362768,-26.759128467766512
712,-40.02247977249272,-16.600416834034704,-3.1362657776132146,-7.6137614731685685,-6.395949708802646,-26.522947233830582
716,-40.09945286629892,-16.484038943293534,-3.0665618376796533,-7.561118832835969,-6.436860338451551,-26.303827444085034
720,-40.25182019697847,-16.376343575351083,-3.025240394379735,-7.573749929871365,-6.552559766601147,-26.104104874536034
724,-40.469574050320226,-16.276560864818684,-3.009766922575596,-7.65111695783845,-6.738907607941875,-25.925453897566044
728,-40.73941698186861,-16.184398261800716,-3.016077690662091,-7.789429374457346,-6.98874447364332,-25.768817261803616
732,-41.04546509444335,-16.099792586485417,-3.0387138610486524,-7.981797264352536,-7.291642249655471,-25.634330566338964
736,-41.37008900951909,-16.022600156851517,-3.0711534738452615,-8.218680988046994,-7.633995857566127,-25.521455785736052
740,-41.69507069922375,-15.952498884325676,-3.106508943855829,-8.488751332964549,-7.99964469371551,-25.429396176809913
744,-42.002995263962056,-15.889118442570744,-3.1384468050949224,-8.779970182199616,-8.37090820155302,-25.357587364022013
748,-42.27858308084351,-15.832220820096673,-3.1619952254788304,-9.080546541868193,-8.729756206452613,-25.305969250469726
752,-42.509737232754375,-15.781832269698775,-3.174035285203988,-9.37958706443459,-9.05895144515042,-25.274936146924198
756,-42.68829338453464,-15.738408437937638,-3.1735181833357564,-9.667508920322259,-9.343175048068462,-25.265092677443306
760,-42.810511309096434,-15.70310029560111,-3.161495418398992,-9.93630785743721,-9.570112159838766,-25.276956688493748
764,-42.877209731910604,-15.677982531593564,-3.140897360864197,-10.179617728278311,-9.73130330935909,-25.310614077783214
768,-42.89339443825583,-15.666015239039515,-3.1159447719178264,-10.392470202917867,-9.82255416169409,-25.365311563109213
772,-42.867427647653926,-15.670706100682759,-3.0912769202493386,-10.57087663634409,-9.843926310208587,-25.439140106402974
776,-42.810032528671776,-15.695700086659242,-3.0711044092016118,-10.711542879805306,-9.799533869944337,-25.529070826889228
780,-42.73341775365782,-15.744522742785422,-3.0586518052307397,-10.81191404573252,-9.697285638676378,-25.63144371904197
784,-42.6505484559609,-15.820456232657722,-3.0558907505437864,-10.870432657348964,-9.54845592255685,-25.742706270646185
788,-42.574395649294395,-15.926362694135236,-3.063406340068282,-10.88674450183889,-9.366883514892624,-25.86007238208667
792,-42.51708232670665,-16.06438431960028,-3.080355070550937,-10.861753477463667,-9.167805799895937,-25.981925198850174
796,-42.48905375758932,-16.235655712288253,-3.104647687476268,-10.797654254453176,-8.96657416992991,-26.10799324632055
800,-42.49842879607583,-16.440160994286643,-3.1334364341205343,-10.698046742076691,-8.77748662741817,-26.239345637782748
804,-42.55051427946442,-16.676663654209925,-3.1637511213940703,-10.568014685884036,-8.61278307895616,-26.378140582027598
808,-42.64736727303591,-16.94253409243392,-3.1930332870745235,-10.413971656148348,-8.481778157905307,-26.5270725980047
812,-42.7874431700763,-17.233466868980383,-3.219503933424743,-10.243281802033465,-8.390251060889952,-26.68865463962905
816,-42.96557369433548,-17.54330823688304,-3.242523413326726,-10.063888717463323,-8.340328976111852,-26.86460532554325
820,-43.17347292684226,-17.864200341580247,-3.2630602847474934,-9.884130765656957,-8.330955693730624,-27.05549008835075
824,-43.40068117237882,-18.187005695698424,-3.284128308064689,-9.712656874650447,-8.35874275812274,-27.260517917913266
828,-43.63564839595598,-18.5018185039247,-3.310914652391724,-9.558231277275253,-8.418881239622765,-27.477322620396368
832,-43.86674681174645,-18.79848536657141,-3.350488576907809,-9.429382395474374,-8.505956216234411,-27.70173648204027
836,-44.083220457565346,-19.067251459837824,-3.4112370135444943,-9.334064311049941,-8.61470542054108,-27.927746162765448
840,-44.27611911749905,-19.29961594561585,-3.5022109552413565,-9.279456563397101,-8.740734984185952,-28.14776150132732
844,-44.43909801689216,-19.489240960499693,-3.632397568405764,-9.27179405355136,-8.881029905379902,-28.35311507907384
848,-44.56887358398006,-19.632630378363174,-3.809857089899655,-9.31603678825399,-9.034077042409484,-28.534632895944313
852,-44.665286172755465,-19.729448236146318,-4.040823694820442,-9.415394929855218,-9.199638494789836,-28.683252802503723
856,-44.73114668246704,-19.782572463389148,-4.329039416174086,-9.570949670531839,-9.378408403623943,-28.790779561168677
860,-44.77204396271163,-19.79798872011511,-4.6754950887188205,-9.781552887529307,-9.571709989379617,-28.85075119658989
864,-44.79607375912327,-19.784451452470336,-5.078465746690227,-10.043927460611775,-9.781158262215389,-28.859180145033633
868,-44.81331802357838,-19.752771615166917,-5.533588823942537,-10.352772664003941,-10.008147495459264,-28.814912131077563
872,-44.83503669052053,-19.71478149755498,-6.033896623199766,-10.700846348545507,-10.253211696336457,-28.719571175429007
876,-44.872747335869114,-19.68226037132747,-6.569944934248077,-11.079195477833348,-10.515493452154299,-28.577275427378495
880,-44.937367549577516,-19.66607993583387,-7.13016941556942,-11.477644619155745,-10.792487326120442,-28.394282653016315
884,-45.038393173968416,-19.675573680472798,-7.701383778262252,-11.885403787277937,-11.079994333473282,-28.178550168552952
888,-45.18299046063505,-19.717977256588718,-8.269230040538055,-12.29156512203984,-11.372147149533122,-27.93915238527522
892,-45.37505816122715,-19.797909721579373,-8.818557286528396,-12.685447123043714,-11.661532772405684,-27.68565488800728
896,-45.61454902802613,-19.917062217320417,-9.3339130231568,-13.056945962693355,-11.939588987408973,-27.427652637207267
900,-45.89731951380223,-20.074235691099684,-9.800288252104178,-13.396986504095029,-12.197337287874577,-27.174543142378862
904,-46.21551343070775,-20.265647134738522,-10.2040131547707,-13.697933405487706,-12.42625374207804,-26.935365377206193
908,-46.5582895106904,-20.48530505762337,-10.533574035661458,-13.953761450772701,-12.618991962378002,-26.71849110309975
912,-46.91276740953277,-20.725395901962628,-10.780264087656812,-14.159999580751496,-12.769855883365516,-26.531163069675348
916,-47.26522043117443,-20.976819008460605,-10.938768336762625,-14.313682385623252,-12.875128688140233,-26.379072487820054
920,-47.602500446373035,-21.229972572499022,-11.007733154441913,-14.41347860368127,-12.933347554995061,-26.26612347519746
924,-47.91345463119389,-21.47565902089985,-10.99014478828504,-14.459906292055374,-12.945450172195947,-26.19434534070165
928,-48.189993684742895,-21.705857310298658,-10.893273517262637,-14.455433076559542,-12.91468808737387,-26.16386498248972
932,-48.427665077801436,-21.914256917448693,-10.728162532406166,-14.404421164710572,-12.846373204787756,-26.172996235353644
936,-48.625847522099136,-22.096645315875893,-10.508882657154306,-14.313049237837879,-12.747647498403492,-26.218590182647137
940,-48.787700470964026,-22.25121082577837,-10.251735060671944,-14.189261268822994,-12.627332695537111,-26.296633335072414
944,-48.91980773606991,-22.378627418847543,-9.974352610025356,-14.042567233159637,-12.495671836286396,-26.40284163377802
948,-49.03137673255266,-22.481743468401373,-9.694576756661153,-13.883489597209847,-12.363740712485125,-26.53298125431873
952,-49.13305756772585,-22.564926071973982,-9.429196908820396,-13.722705454933733,-12.242552127507546,-26.682889185960494
956,-49.235694603946,-22.633357410050856,-9.192860845024153,-13.570182565142114,-12.14211319982996,-26.8483851872793
960,-49.349300253975294,-22.69253456766244,-8.99739268742569,-13.434548871327042,-12.070657324603806,-27.025226719257763
964,-49.4822753518116,-22.747950408371718,-8.851460631552078,-13.322664332060175,-12.0340581727997,-27.209069897865895
968,-49.64072773513466,-22.804779468235388,-8.760373628121505,-13.239237970122254,-12.035359643432333,-27.395351486936438
972,-49.82785096046652,-22.867524783378272,-8.725918925246003,-13.186482508279367,-12.074504312471714,-27.579161419883008
976,-50.04351715632678,-22.939765866137254,-8.746349552025656,-13.16396537997252,-12.148449174858385,-27.755285304057473
980,-50.284213467273176,-23.02409498250514,-8.816603948524968,-13.168733765093972,-12.25170236182013,-27.918465937589765
984,-50.54323606867908,-23.122105973822176,-8.928645196531832,-13.19556676649925,-12.377050156577443,-28.063705508929882
988,-50.81095844868519,-23.234233696716792,-9.07174983099476,-13.237160443320127,-12.516189944974863,-28.18639684538786
992,-51.075161728114054,-23.35945466034038,-9.232766558832054,-13.28426706245546,-12.660196641376377,-28.28227572213437
996,-51.32162354809393,-23.49509122543918,-9.396555095254842,-13.32601265033969,-12.799952419773929,-28.347368287097975
1000,-51.53510512440564,-23.636918837050256,-9.546738001171587,-13.35053701100043,-12.92662801521965,-28.37805559685504
1004,-51.700593998335414,-23.779520157009483,-9.666645298251607,-13.345842776797229,-13.032127230318952,-28.371197582760743
1008,-51.804492654995144,-23.916689684833752,-9.740238798368843,-13.3006435210918,-13.109381167775812,-28.32421404896838
1012,-51.8355770547136,-24.041816776258784,-9.752985504381803,-13.205166860332811,-13.152558125212405,-28.235158163204137
1016,-51.78577400037123,-24.148340284981302,-9.692831626999176,-13.052020675424686,-13.15737242279538,-28.102910450018967
1020,-51.650818713118404,-24.230305123669048,-9.551325265052943,-12.837114387661703,-13.121524809690001,-27.927502426358625
1024,-51.43068020630117,-24.28283854261727,-9.3246543818334,-12.560379475282684,-13.045055137760526,-27.710393023962308
1028,-51.12958490881996,-24.30232498678803,-9.014269123752689,-12.225998353447247,-12.930361205204086,-27.45452495701463
1032,-50.7556637024401,-24.286298182613294,-8.626972210996861,-11.842106094477742,-12.781880280049487,-27.164192032698864
1036,-50.32045859649697,-24.233308968360845,-8.174616261957452,-11.42017943853874,-12.605643270076092,-26.84489357857766
1040,-49.83846683416727,-24.142970811677245,-7.673543625688782,-10.97429758968322,-12.408850291982317,-26.503256989983132
1044,-49.32663584673898,-24.01611295246589,-7.143715889436931,-10.520252809618068,-12.199406922994703,-26.146914565723673
1048,-48.80359433731166,-23.854832477359455,-6.607431976129931,-10.07443035363581,-11.985316571944628,-25.784198017908956
1052,-48.28857977671974,-23.66238179094939,-6.087736318370123,-9.652558825380373,-11.77400709224673,-25.423689446658102
1056,-47.800270332009276,-23.44301901302532,-5.6068135833428,-9.268589482929315,-11.571804470403194,-25.073787116784306
1060,-47.355740393157525,-23.201906745536554,-5.184597404292462,-8.933861313063884,-11.383643881665694,-24.742341056376315
1064,-46.969563521391294,-22.94494802238612,-4.837598177625462,-8.656487910947556,-11.212895073537666,-24.436251865028318
1068,-46.65299026606743,-22.678418039402597,-4.577897923378631,-8.440878811119505,-11.061183809544268,-24.160967462168173
1072,-46.4132675977685,-22.408479288422868,-4.412436696189278,-8.28750978705125,-10.92831729716798,-23.920032540573146
1076,-46.25332016096944,-22.140867095994764,-4.3428372751706235,-8.193166505954194,-10.812544967290929,-23.714948809898246
1080,-46.17192198020731,-21.880920980489176,-4.3658411865519255,-8.151685044352826,-10.711197674433492,-23.54542323582344
1084,-46.164222718340774,-21.633829560686834,-4.474111689984618,-8.154902034776946,-10.621449319497815,-23.40981243923481
1088,-46.22236777485162,-21.40481572984324,-4.6570579964794385,-8.193474760807284,-10.540887591471394,-23.305522613929174
1092,-46.33609999672286,-21.199149288232412,-4.901549825568134,-8.257486483204781,-10.4678087581426,-23.229316073278678
1096,-46.49342808868781,-21.022083091561196,-5.1926369259858065,-8.336983657353233,-10.401358576230846,-23.177627160253447
1100,-46.681418153311725,-20.87878527314256,-5.514374608986825,-8.422536262348869,-10.341594234125905,-23.146909883196916
1104,-46.88696548666757,-20.774160317857852,-5.85066774044371,-8.505718083756207,-10.289384053705714,-23.1338818032189
1108,-47.09734256473518,-20.712428749691306,-6.185998342755412,-8.57939575607163,-10.246084424601236,-23.135561688270986
1112,-47.30052080456302,-20.69656176286172,-6.506080119791715,-8.637922390994657,-10.213147883498491,-23.149211040738162
1116,-47.485483449904926,-20.727867712288933,-6.798613993801899,-8.677446439884509,-10.191925528608968,-23.172397778564
1120,-47.642699884071895,-20.805929680008106,-7.054168536089775,-8.696368107292106,-10.183742762681117,-23.203243748237757
1124,-47.76467991634584,-20.928799696043153,-7.2669309021786095,-8.69570155355284,-10.190047270702955,-23.24068597455072
1128,-47.846395112915246,-21.093209916769716,-7.435012498629517,-8.679070435644622,-10.21238550659732,-23.284561256813518
1132,-47.885492039552105,-21.29470287874338,-7.5602253219886375,-8.652311968426323,-10.252190129444932,-23.335518039570214
1136,-47.882407979352806,-21.527779627595624,-7.647483177234908,-8.622880200421537,-10.31055303152716,-23.394892825888316
1140,-47.84046162476895,-21.78614417268805,-7.70397110858246,-8.599181104515111,-10.388093117191454,-23.464587999395615
1144,-47.7657944288796,-22.06295044287934,-7.738081126882968,-8.589786084656694,-10.4848522460756,-23.54682174576603
1148,-47.666986498933476,-22.350931442999105,-7.758135068698864,-8.602474297259478,-10.600155066437914,-23.643658683698686
1152,-47.55436726619014,-22.642492632759826,-7.7711450328937195,-8.64327803762055,-10.732552949201434,-23.75645521887601
1156,-47.439239291806395,-22.93000527545527,-7.7819950019247175,-8.715838782756467,-10.880045776147705,-23.88547276815169
1160,-47.33317983700357,-23.206384775682828,-7.793232977998114,-8.821208192144654,-11.04056737444628,-24.029755916746755
1164,-47.24736592053986,-23.46572361185599,-7.805315326341696,-8.957934818394355,-11.212443057227532,-24.18713340264335
1168,-47.19179332974892,-23.703642152910177,-7.817015328447884,-9.12220798304936,-11.394513283590173,-24.354175225046635
1172,-47.17443925844064,-23.917248407255745,-7.825890826305925,-9.308033943021169,-11.585884984058342,-24.526137864732437
1176,-47.200610562032935,-24.104878778639947,-7.828906015916461,-9.507594615186585,-11.78550287521709,-24.69707133943668
1180,-47.27265922232614,-24.26581671557532,-7.823236132310092,-9.711846707302163,-11.99169388492267,-24.86016282987023
1184,-47.39000823867464,-24.400015175710898,-7.8070585275747595,-9.911205653513848,-12.201681221010988,-25.008205403677856
1188,-47.54932339064291,-24.507787163782663,-7.78008378197701,-10.096141057609268,-12.41108595328733,-25.134066730833094
1192,-47.744801232385555,-24.589567119090788,-7.743786208128361,-10.257715820209416,-12.613627079617983,-25.231184298896746
1196,-47.9686898954996,-24.645934989152895,-7.701469674684713,-10.388223672648264,-12.801288169602119,-25.294171805371256
1200,-48.212077500003495,-24.677924653329434,-7.658217093505166,-10.481920876855538,-12.964980387720335,-25.319459408206
1204,-48.46576446846908,-24.687366966132313,-7.620572204161232,-10.535606353527513,-13.095435796366374,-25.30571342126127
1208,-48.72097724317556,-24.676978907154847,-7.595815237075095,-10.548808883814832,-13.184039703599163,-25.253852486337646
1212,-48.969873421793594,-24.65016791561321,-7.590962486991306,-10.523604583696287,-13.223543703807824,-25.166750852331415
1216,-49.205985381490734,-24.61077078679075,-7.611833370714029,-10.464293094786917,-13.208764800509059,-25.048882285915855
1220,-49.42469660636531,-24.562905697810898,-7.6624316048373515,-10.377076545304115,-13.137267634174325,-24.90603577865771
1224,-49.62363052451992,-24.51088614664665,-7.744621255566104,-10.269673093607706,-13.009829338607835,-24.745015663440434
1228,-49.80276592505153,-24.45906234273375,-7.8579847088099335,-10.15077924395942,-12.830505268492445,-24.57321485086465
1232,-49.96427149298496,-24.41161625494119,-7.999892073925747,-10.029494221253156,-12.60634797728852,-24.39812141234742
1236,-50.11221903173253,-24.372471232486184,-8.16589781884731,-9.91491885917241,-12.346975343265159,-24.226914564055306
1240,-50.25224698930184,-24.345346677568703,-8.350399828628484,-9.815942601562647,-12.064057827500337,-24.066176394798333
1244,-50.3910245948428,-24.333740161617516,-8.5472427940229,-9.740959155436993,-11.770600943073067,-23.92157423895277
1248,-50.53534401570455,-24.34059771850548,-8.749968593060046,-9.697262319880146,-11.479936496548394,-23.79741446171542
1252,-50.69092901220591,-24.36770631763786,-8.951736085485337,-9.690181375110848,-11.204585194933196,-23.696198655517346
1256,-50.8613022373488,-24.415098869546085,-9.145202853564598,-9.722266522298886,-10.955297393402976,-23.61843218211834
1260,-51.04701164441952,-24.48071665369497,-9.322599392074942,-9.79276774133364,-10.740431366680253,-23.562778417930247
1264,-51.245269007860614,-24.560336863458815,-9.475969011092909,-9.897421349695753,-10.565584980140928,-23.52641264798571
1268,-51.44992650214678,-24.647677829339802,-9.597447761432377,-10.028501084177732,-10.433367232840737,-23.505397635881227
1272,-51.65181999608484,-24.73472793461664,-9.679601748898172,-10.175240573440215,-10.343378158623553,-23.495075088809642
1276,-51.8395961854446,-24.812434723996123,-9.715942081708043,-10.324785378999195,-10.292552101600156,-23.49056544684093
1280,-52.000979893884264,-24.87171249342389,-9.701579443387493,-10.463590251773452,-10.275838035289597,-23.4873370381029
1284,-52.12415472112226,-24.904445232452,-9.633737193598094,-10.578864179136218,-10.286952904514717,-23.4816283561111
1288,-52.19886349026422,-24.904131770663387,-9.51185264547602,-10.659646886426472,-10.318957472507845,-23.470550218581156
1292,-52.21708024267044,-24.866107956080292,-9.337290061380942,-10.697400882429772,-10.364652377526626,-23.45193796000497
1296,-52.17337784176953,-24.78756250908764,-9.112932463414873,-10.686275705164679,-10.416955122949917,-23.424180926900192
1300,-52.06512343375737,-24.667540861943447,-8.842852499332606,-10.623179733336649,-10.469302961290012,-23.386153106990996
1304,-51.89245800347717,-24.506912709691914,-8.532034638993087,-10.507625007660058,-10.515924373064617,-23.337171211262103
1308,-51.657971563373486,-24.308204941881293,-8.18606961924666,-10.341314023299597,-10.55184349832009,-23.276886588054303
1312,-51.36616951283373,-24.07536200892932,-7.810917186905108,-10.127643167310762,-10.572721698914155,-23.205175172886367
1316,-51.02298258458188,-23.813616736183654,-7.412935420438816,-9.871398927860202,-10.574781331593403,-23.12216623762539
1320,-50.6354623691183,-23.529509742685978,-6.999196063504647,-9.578725502519163,-10.554911915925276,-23.02841044605021
1324,-50.21155056323915,-23.230846486610346,-6.577835811302214,-9.257155568668368,-10.51082732405334,-22.925018179706676
1328,-49.759738431451744,-22.926362957533748,-6.158166139425074,-8.915457583609857,-10.441125806678748,-22.81364310087901
1332,-49.28862541398496,-22.62512935308816,-5.750504181347752,-8.5632797201351,-10.345293030252332,-22.696394360677985
1336,-48.806568653743966,-22.335940808299,-5.365881363829984,-8.210748356863883,-10.223790487712918,-22.57585279072161
1340,-48.3215325404674,-22.06686593742476,-5.015703176393695,-7.868089635695419,-10.078228735025332,-22.45521096210254
1344,-47.841010625779504,-21.82488168458025,-4.711229479537331,-7.545149398149831,-9.911434443355857,-22.33835728724121
1348,-47.371826655959254,-21.615453739896235,-4.462746058259415,-7.250699824460543,-9.72726339590251,-22.229748184680947
1352,-46.9198148530359,-21.442102631405437,-4.278541926678293,-6.991656525688609,-9.530253242114771,-22.134126704887063
1356,-46.48956293710397,-21.30614534759854,-4.163985616707597,-6.77247783071786,-9.325334093923008,-22.05626158313695
1360,-46.084332606700926,-21.206692784161536,-4.120890619161608,-6.594880962813248,-9.117663923186178,-22.000754472984692
1364,-45.70607717456506,-21.14077460624044,-4.14715238942073,-6.457790074856733,-8.912453223329866,-21.9717947899865
1368,-45.355460121857824,-21.103472645178215,-4.236632720412116,-6.357441526778171,-8.714679159458978,-21.97278660258932
1372,-45.03197731750753,-21.088177632462486,-4.3794491068386945,-6.287776567136002,-8.528808561251946,-22.00597865747235
1376,-44.73440063380419,-21.087207366383016,-4.562875590654027,-6.241304754170458,-8.358728666552755,-22.072306225806646
1380,-44.461575176478085,-21.09282129130627,-4.772803298940883,-6.2103608404051345,-8.207887869971934,-22.171475574162137
1384,-44.21329711256511,-21.098347225956857,-4.995383623336725,-6.188375493888772,-8.07942174968667,-22.30210749489301
1388,-43.99092791102372,-21.099070078897338,-5.218441159064165,-6.170792291316727,-7.976081127509611,-22.46177724541266
1392,-43.79763065108604,-21.092767940638808,-5.4325031708396745,-6.155560269465631,-7.900038907182979,-22.647002179986682
1396,-43.63834604541344,-21.079995478466635,-5.6315031722986015,-6.143344453538392,-7.852797910481111,-22.853341801706026
1400,-43.51960231975464,-21.06416096102425,-5.8131556704644884,-6.137511203602367,-7.835281670764731,-23.07564868225804
1404,-43.4490967098974,-21.05128123754882,-5.978859408497301,-6.143770711982038,-7.847980602822553,-23.308343507566427
1408,-43.43500260437444,-21.04935034879307,-6.13307876176125,-6.1694199755596335,-7.891044254206559,-23.545632656526273
1412,-43.485179350578015,-21.067525238998844,-6.282441917867239,-6.2224010403530245,-7.964414830743971,-23.78178038831518
1416,-43.606590258866476,-21.11547147110648,-6.434923756775699,-6.3105182465458185,-8.068166782844227,-24.011596344557752
1420,-43.805051848948104,-21.20300523348758,-6.5992611329146165,-6.440949389358507,-8.203009427977713,-24.231089387293903
1424,-44.08512718102582,-21.33983867365288,-6.784428678936146,-6.6198816646696095,-8.37067240484027,-24.438009443554456
1428,-44.44989436540734,-21.53516430520178,-6.998956630127896,-6.852065501426515,-8.573934271838656,-24.632031681755016
1432,-44.90053455326753,-21.797045190721,-7.250114414120139,-7.140310275655773,-8.816322122800718,-24.814585834982427
1436,-45.43589343329513,-22.13177923497834,-7.543172861032955,-7.485104668565981,-9.101668152792621,-24.988492534334483
1440,-46.052123356594244,-22.54332942734704,-7.880862121264518,-7.884424565901946,-9.433595177531597,-25.157488074815262
1444,-46.742337407290265,-23.032720613036027,-8.262941956486976,-8.333597598228758,-9.814839203677614,-25.325592602961724
1448,-47.49621124139669,-23.59732435212832,-8.685813873881518,-8.825136332371965,-10.24638371281891,-25.496344087634128
1452,-48.2996898450682,-24.230201502104386,-9.142323117170175,-9.348692517282062,-10.72661510626439,-25.672113457638496
1456,-49.13509316392794,-24.919819106298785,-9.62199569132124,-9.89137897147021,-11.25079085285254,-25.85375151973616
1460,-49.981746654424995,-25.650288763533176,-10.111749898733812,-10.438492187379552,-11.81091108911182,-26.04060010197221
1464,-50.81696337043229,-26.401984314035715,-10.596841436882373,-10.97440367523373,-12.395848310541307,-26.230667573795635
1468,-51.61711462345337,-27.152331094863197,-11.061782246392225,-11.483400014618857,-12.991609748650205,-26.420785449918224
1472,-52.358707374386555,-27.87675247370189,-11.491211549959083,-11.950497933326572,-13.581823822837972,-26.606768917625953
1476,-53.01954967322635,-28.549901437310623,-11.870856044632632,-12.362389887500859,-14.148629186828902,-26.783705604376994
1480,-53.57999376624146,-29.147168807575135,-12.188580707033786,-12.708506082100946,-14.673953672438236,-26.94636801872629
1484,-54.02404319703807,-29.64621966996354,-12.435299701419012,-12.981942843641933,-15.140927207155757,-27.08959345186891
1488,-54.34011291981502,-30.02829905655659,-12.60552111922477,-13.180024352010784,-15.53516293416397,-27.208537091975128
1492,-54.52146933010316,-30.279282337406094,-12.697541668422147,-13.304496463484655,-15.84582369322007,-27.29890084698474
1496,-54.56653827403626,-30.39059474277275,-12.713458363056585,-13.361461345306973,-16.066478720183103,-27.357283903132952
1500,-54.47914273575051,-30.359979079870936,-12.659030083150874,-13.361001437790888,-16.195634098196916,-27.38160501010386
1504,-54.26850402975851,-30.19185852194356,-12.543218666462202,-13.316273975510809,-16.236714011262286,-27.371362868467525
1508,-53.948828998241744,-29.897061016426665,-12.377290186985107,-13.241996491126647,-16.19741544066176,-27.32758437437202
1512,-53.5385276475311,-29.49195562418942,-12.17363979926147,-13.152607295714843,-16.088654427579378,-27.252570258995352
1516,-53.059265743129046,-28.997271181969296,-11.944673956563168,-13.06058144688695,-15.923440175038431,-27.14966550814172
1520,-52.53495566351943,-28.43679336181107,-11.701944234560319,-12.975215756832284,-15.71583644308689,-27.023133064225135
1524,-51.99059602129125,-27.83593545507661,-11.455490962310867,-12.901906901172612,-15.479952712283662,-26.878014750300878
1528,-51.450890188680404,-27.220172932085255,-11.213339682557939,-12.841873376058581,-15.228932553054607,-26.719875325777615
1532,-50.938809921712526,-26.6135374211875,-10.981270612215322,-12.792399993196074,-14.97409721475302,-26.554487048965846
1536,-50.474404557857426,-26.037466254110658,-10.763022252529508,-12.747697313115781,-14.724439519831131,-26.387557522046453
1540,-50.073989661397505,-25.51010654987151,-10.560847069238205,-12.700223553253496,-14.486443559927613,-26.224453037180783
1544,-49.74958650593311,-25.045894072482387,-10.376074532412936,-12.642064557054685,-14.26399836558763,-26.069757604928082
1548,-49.50845975692832,-24.655203840417972,-10.209384558949102,-12.566021260281689,-14.058256742964067,-25.92665252791475
1552,-49.352829204586165,-24.344103571135186,-10.06080155713175,-12.466358901886483,-13.867570709718665,-25.796371767052644
1556,-49.279990146001616,-24.11439788424853,-9.929620402365488,-12.339368396952532,-13.687762467795057,-25.678050488994945
1560,-49.28293663304222,-23.964013505382546,-9.814373826723957,-12.183785961423354,-13.512809640481345,-25.56904408757232
1564,-49.35130755945049,-23.887540603386537,-9.712762264277863,-12.000932485354417,-13.335764569412337,-25.465526334808725
1568,-49.472398406806654,-23.876750282561595,-9.621502468552526,-11.794480368002557,-13.149686559679349,-25.363155928280946
1572,-49.63214895641731,-23.9211510466379,-9.536272300190745,-11.569990163807732,-12.948520503372615,-25.25776264478399
1576,-49.816147484987034,-24.00877674150629,-9.451998326032422,-11.334450006059543,-12.727928450521793,-25.146063662086668
1580,-50.01058680346728,-24.12720460108499,-9.363490190834808,-11.095857004043074,-12.485953021864303,-25.026285574919584
1584,-50.20293312439924,-24.264516797168177,-9.266131192993894,-10.862660872514805,-12.223272602767436,-24.898459250402855
1588,-50.38211922581164,-24.40990886497317,-9.156335193988408,-10.642951185628347,-11.942933044829754,-24.764284967567676
1592,-50.53835676373642,-24.55392631915237,-9.031752422439332,-10.443548287303534,-11.649726326203103,-24.626728361768
1596,-50.66287294892226,-24.68853017800441,-8.891392350361397,-10.26930473965814,-11.349524206765873,-24.489609994885242
1600,-50.74779152460872,-24.807116296695625,-8.735718301854934,-10.122763304797218,-11.048731052750597,-24.35729817871371
1604,-50.786149221819606,-24.904417614306563,-8.566566459505012,-10.004074300707737,-10.753807504475105,-24.23442735133562
1608,-50.77197562381346,-24.97622088765091,-8.386777398000508,-9.911061984766434,-10.470800159598143,-24.12557544902671
1612,-50.70049908500728,-25.01903242590636,-8.199676857869491,-9.839511143377955,-10.204955408263961,-24.034978774249105
1616,-50.56859736680186,-25.029917477211733,-8.008663863099937,-9.783796029098875,-9.960539830949823,-23.966389442569994
1620,-50.37542165821399,-25.00654643381376,-7.816987638115947,-9.737757779789606,-9.740841397954805,-23.92302011299685
1624,-50.122890339815235,-24.94723769594942,-7.6275599776587075,-9.695517999636412,-9.548189198253619,-23.9073952314763
1628,-49.815777688589364,-24.85080444856334,-7.442668410903288,-9.651994278909406,-9.38390681765181,-23.92103543717654
1632,-49.46139971088023,-24.716258012026163,-7.263682106620385,-9.603169351526901,-9.248305898102261,-23.964126339764107
1636,-49.069107623683216,-24.54257058170474,-7.09094849845413,-9.546298186653221,-9.140852916778593,-24.035379496345055
1640,-48.64973242532108,-24.328583110257213,-6.923910290925508,-9.480070506847934,-9.060437203888206,-24.13210993421451
1644,-48.214943548742035,-24.072959130610688,-6.761259073688169,-9.404540853814515,-9.005499091912903,-24.250370507596422
1648,-47.776484066565814,-23.774114225910647,-6.600975987926046,-9.320702114038356,-8.973895576172028,-24.385028800872007
1652,-47.34543354141305,-23.430258010642703,-6.440341968011971,-9.229845732974688,-8.962662456740821,-24.529860757477234
1656,-46.93173497514568,-23.039758580437503,-6.276106904021099,-9.132978483556185,-8.967926220405689,-24.677792614136557
1660,-46.544031545204255,-22.601827082088406,-6.104843463517526,-9.030407618515765,-8.985023589772869,-24.821273534526423
1664,-46.18960466161668,-22.117260165610848,-5.9233110479983475,-8.92141331111319,-9.008680952576217,-24.9526292467271
1668,-45.874205786177,-21.58898601728187,-5.728700517414275,-8.803984538359659,-9.033161883345157,-25.06433310310039
1672,-45.60181831112823,-21.02240233341363,-5.518855187071904,-8.674818611124154,-9.052509585632116,-25.149327528629076
1676,-45.37454621282974,-20.42563692899824,-5.292642652190273,-8.5298307807567,-9.061067875304605,-25.20156154535546
1680,-45.19270244312952,-19.80972128196446,-5.050448885397347,-8.365152511225556,-9.054252237011053,-25.216708995853526
1684,-45.054949593719265,-19.188458784829404,-4.794531022407986,-8.178286027183681,-9.029316895361342,-25.19283049985781
1688,-44.95834015327819,-18.577806677102693,-4.529007934123386,-7.96906119388195,-8.985897083906748,-25.130769997760897
1692,-44.89831863750616,-17.994853398563528,-4.259540584618915,-7.740271218183035,-8.926319436408003,-25.034259664118512
1696,-44.868875538893846,-17.45663938978954,-3.992915866214403,-7.498009814224534,-8.855759143645296,-24.909784639266935
1700,-44.8629016774871,-16.978968191932072,-3.7366285129168735,-7.25163708306603,-8.782184644551021,-24.76616051293936
1704,-44.872590040424726,-16.575198536803327,-3.498383784647483,-7.0131990514454605,-8.715920597680956,-24.61371912047301
1708,-44.88977183889896,-16.255077633602706,-3.2855103053838115,-6.796287848447224,-8.668807039831572,-24.46316443384176
1712,-44.906306366487605,-16.023903266680545,-3.104504086070383,-6.6146460664974,-8.653199351190795,-24.324412218774114
1716,-44.91472753151823,-15.88234402989107,-2.960969060253437,-6.480921681126759,-8.681106005386491,-24.20576598055856
1720,-44.909125560401804,-15.826959887661836,-2.859941289717857,-6.405745292098262,-8.763523015159164,-24.113542662866173
1724,-44.88596538485203,-15.851129312529144,-2.806279802442235,-6.397028519771293,-8.909792029002269,-24.052009188143447
1728,-44.84454809121635,-15.946056497434705,-2.804824968759491,-6.459393689709552,-9.126866621108704,-24.023480729187106
1732,-44.78708789820411,-16.101771764082212,-2.8603069398835177,-6.5938616006071635,-9.418617313565361,-24.0285870847925
1736,-44.71856796146274,-16.30819232761274,-2.977159489937811,-6.797993142916629,-9.785399549977,-24.066754463868236
1740,-44.646451250794996,-16.556180914373172,-3.159279595753971,-7.066467536037663,-10.223935984665975,-24.136794046639217
1744,-44.58014655551489,-16.83834520690862,-3.4096048581427985,-7.3918489741312206,-10.727380841783829,-24.237363502118193
1748,-44.53016354988968,-17.149378245862593,-3.729455437811545,-7.765332049820716,-11.28549226338869,-24.36717631950214
1752,-44.50711647134096,-17.486012027954903,-4.117839383787073,-8.177472442385744,-11.885031745145273,-24.5250564822013
1756,-44.52084320140069,-17.84679968338942,-4.57101099050629,-8.618967659991627,-12.510530457948766,-24.709992940780854
1760,-44.57973229765987,-18.231785480207414,-5.082360391695806,-9.081358442784783,-13.145339277151715,-24.921187700177047
1764,-44.690111352498015,-18.64191271219945,-5.642459865983345,-9.557363130581972,-13.772679363430768,-25.157957163213847
1768,-44.85555236693952,-19.078082183899422,-6.239111580346009,-10.040704779983237,-14.37647604937777,-25.419440033435166
1772,-45.07618077212801,-19.54005959201029,-6.857477453011186,-10.525612853354211,-14.941987405366277,-25.704267182995842
1776,-45.34822434516908,-20.02557682153924,-7.480486595359795,-11.006309379118981,-15.45632825145774,-26.01038087686212
1780,-45.66391966453774,-20.529798364841643,-8.089556798920752,-11.47660609564961,-15.908854480784502,-26.33500287788974
1784,-46.01169051327693,-21.045070746377156,-8.665463965279395,-11.929527380182936,-16.29125483609011,-26.674599633572132
1788,-46.37651109867519,-21.560863050613474,-9.189222449459615,-12.356925063899746,-16.597318813491533,-27.024785030774666
1792,-46.7405461180095,-22.06400118802064,-9.643030183367808,-12.749270378474954,-16.822586837030276,-27.380302155241463
1796,-47.084221534808115,-22.53936299538581,-10.01137243761144,-13.095856364767181,-16.964140067187493,-27.73524284144576
1800,-47.38767786979633,-22.97098122811072,-10.282161893276852,-13.385413031431336,-17.02058405492728,-28.08345015445061
1804,-47.632314182716456,-23.343242216536677,-10.44759067864542,-13.606901009797863,-16.99207775827699,-28.41886874867659
1808,-47.80214142071079,-23.64188379161555,-10.504468080792075,-13.750290277365417,-16.88029632973667,-28.735687375570354
1812,-47.884897678862096,-23.854750217550837,-10.454119362225738,-13.80735639971646,-16.688407809554867,-29.028349035276808
1816,-47.873016903259945,-23.972423315533597,-10.302070072707561,-13.772598529363227,-16.421205465041243,-29.29159472509925
1820,-47.764413442903766,-23.988744950584586,-10.05760175891895,-13.644187114930855,-16.085376006417714,-29.52057198746981
1824,-47.562858043187155,-23.901090895064907,-9.7330946397953,-13.424657063329805,-15.689722904006462,-29.710905281179485
1828,-47.27777262811824,-23.710332307232008,-9.343140002142048,-13.121148326817549,-15.245218028306304,-29.85869352679828
1832,-46.92352109458786,-23.42065732211094,-8.903610953378585,-12.745248653966017,-14.764919422124809,-29.96055483612463
1836,-46.51840256992765,-23.03948542670632,-8.430906316038485,-12.31257392186422,-14.263805880154989,-30.01381976433222
1840,-46.08341956188572,-22.57747379603785,-7.941353906539216,-11.842048501376915,-13.758416402973763,-30.016772157064295
1844,-45.640729886646106,-22.04836966276873,-7.450568720370159,-11.354719685315509,-13.26610804572356,-29.96872603849937
1848,-45.211781833346166,-21.468512354958307,-6.972675455758352,-10.872115322490455,-12.803935136334424,-29.869887949272467
1852,-44.81541430590366,-20.856059542467833,-6.519592498369275,-10.414474489282528,-12.387427180613132,-29.72121064130982
1856,-44.466338110082276,-20.23015841175312,-6.100666643595396,-9.999267056013098,-12.0295856395171,-29.524484342333192
1860,-44.17422955842447,-19.610146547527524,-5.722721092115357,-9.640172380422976,-11.740193131450544,-29.282690707718366
1864,-43.943385112626046,-19.014680084192424,-5.390317619613761,-9.346421483493538,-11.52532678934152,-29.0004341656844
1868,-43.77281582936649,-18.46073679172832,-5.106043382521597,-9.12241799656442,-11.387026145967535,-28.68429105398628
1872,-43.65678497316176,-17.96266680178395,-4.870832725121577,-8.967733808818776,-11.323248406418942,-28.34306826355848
1876,-43.58582049066045,-17.531537925787106,-4.684391756882807,-8.877587949161539,-11.328240769749026,-27.987973080715484
1880,-43.548040641106994,-17.174821186817407,-4.545609933094205,-8.843683432060294,-11.393230116194513,-27.632536488235697
1884,-43.530446766606076,-16.89624263854063,-4.452697889086288,-8.855095271744625,-11.507164440373273,-27.29206173985065
1888,-43.51992806325017,-16.69567568341006,-4.4029429576880315,-8.899029825854669,-11.657353511612872,-26.982563410169345
1892,-43.504012905234404,-16.5691873185992,-4.3922875071142755,-8.961561045613712,-11.830094529132943,-26.719449715382666
1896,-43.47155549135652,-16.50944547213591,-4.415048516197122,-9.028533080390329,-12.011420940343742,-26.51628113297897
1900,-43.41341029344133,-16.506501322976398,-4.463899214454005,-9.08661045045202,-12.187928441608012,-26.38376714281173
1904,-43.32294730681418,-16.548727756812383,-4.530008324566695,-9.124247086192927,-12.347482557423813,-26.32899338763019
1908,-43.196291382089136,-16.623719864375637,-4.603267819788654,-9.132406765809922,-12.479712603015804,-26.35490093520056
1912,-43.032380370465056,-16.719178675294327,-4.672738215044601,-9.105090317280458,-12.576404004255831,-26.4601498771647
1916,-42.83301499662215,-16.823871059841814,-4.727464610419588,-9.039782574670642,-12.631914466375157,-26.639447050575594
1920,-42.60289035628168,-16.928564662202255,-4.757572947632286,-8.937746511202091,-12.643534622166875,-26.884199750221466
1924,-42.34939976534564,-17.02664772590141,-4.755331704132995,-8.803948049552798,-12.61158611714188,-27.18323641296714
1928,-42.08206939839027,-17.114251235132944,-4.715937387803402,-8.646539395420762,-12.539202901639921,-27.52347698461475
1932,-41.811751876132824,-17.190002222532893,-4.638046238742208,-8.47611542383647,-12.431997413353018,-27.890667650262603
1936,-41.54984961870511,-17.254690573862657,-4.524184115094452,-8.30503279507555,-12.297846681523245,-28.27032465164088
1940,-41.30769565922094,-17.310972797622902,-4.38100206015996,-8.146857085040564,-12.146803262054032,-28.64883109387542
1944,-41.0960049458402,-17.36301448604421,-4.219171528629535,-8.015777210603408,-11.990936128673022,-29.01446307660541
1948,-40.92430836156252,-17.4159917886573,-4.052807480248469,-7.9258787881186565,-11.843967420882569,-29.358183285477573
1952,-40.80046102641269,-17.475572818680597,-3.8985618468373584,-7.890382430746756,-11.720757998618664,-29.67420359226533
1956,-40.730387936534534,-17.54756153253036,-3.774603629776388,-7.920994918996956,-11.636719511053574,-29.960331005474327
1960,-40.71807163195514,-17.637694917711144,-3.6995150969024566,-8.027324865224683,-11.607072123576394,-30.217967930442693
1964,-40.76561393520336,-17.751398792057657,-3.690981598518003,-8.21617972127341,-11.64580474441171,-30.451594732379938
1968,-40.87325838282696,-17.89339221799959,-3.7642778905769054,-8.490721748939755,-11.764401287417126,-30.667769664064835
1972,-41.03946416897809,-18.067277749976803,-3.9308033105167035,-8.849744930445445,-11.970667645954569,-30.87394776017071
1976,-41.26118089364425,-18.27532660709087,-4.196959249178787,-9.287388414178212,-12.268002213175599,-31.07745303374011
1980,-41.53428319652081,-18.51845668265258,-4.563436948052352,-9.793356313334682,-12.655180313722674,-31.284724469529063
1984,-41.85393273650422,-18.796182283222578,-5.024784822412588,-10.353467301502995,-13.126485465429369,-31.500769466100348
1988,-42.21471194254161,-19.10638117255493,-5.56920390607483,-10.950375465041606,-13.672053497751305,-31.72878782119348
1992,-42.610634446989735,-19.444991616825806,-6.178746508252541,-11.564475116818842,-14.278460474898985,-31.970042038742857
1996,-43.035246062018985,-19.8058724078592,-6.830128299634074,-12.175021174511349,-14.929590258138612,-32.224004808304834
2000,-43.481860261109524,-20.18090294839306,-7.496131027007862,-12.761316134940008,-15.607642203319582,-32.488627656587674
2004,-43.94377519462364,-20.560224388302334,-8.147365237673323,-13.30371760206751,-16.29405758539895,-32.76051339401187
2008,-44.414371403564495,-20.93258731110333,-8.75422660403131,-13.784403034953877,-16.970313943563102,-33.03497668489633
2012,-44.887207577350964,-21.285965842433793,-9.289065255663171,-14.188100120916571,-17.618759023551164,-33.30622783496332
2016,-45.35629054705946,-21.60859718769375,-9.728561485107301,-14.5030119640748,-18.22363426329009,-33.56790978295652
2020,-45.81648165295225,-21.890330380675906,-10.056023492500282,-14.721892127076245,-18.772183258378362,-33.813955805261806
2024,-46.263779641588314,-22.123911134655227,-10.263123488072814,-14.842969921405166,-19.25556592307477,-34.03951710367006
2028,-46.69527956255684,-22.305877753149264,-10.350736082546973,-14.870461895013232,-19.66940752036963,-34.24175119771743
2032,-47.108871424097366,-22.437005554756848,-10.328887307471058,-14.81461966739682,-20.014030266719754,-34.42043329639304
2036,-47.50288096948856,-22.522379157070713,-10.215993311853925,-14.691346584963796,-20.29443818009571,-34.578383554108505
2040,-47.875734631281006,-22.571069569563125,-10.037462418028282,-14.521308213128679,-20.519947601629298,-34.721571244153935
2044,-48.225580250356344,-22.59529187806788,-9.823632821976252,-14.328434777360195,-20.703286096479307,-34.85871300348618
2048,-48.5498660141794,-22.609072063091578,-9.607171966278973,-14.137951660737903,-20.85920638322859,-35.00037535635458
2052,-48.845083864084145,-22.626736910128667,-9.420336760539769,-13.97436847929017,-21.00296129227505,-35.157838412047354
2056,-49.10690936012863,-22.66160858197869,-9.292549830477016,-13.859858652914504,-21.14901628139216,-35.34200470495835
2060,-49.330721676647705,-22.72503889417111,-9.248506497807709,-13.813149352331113,-21.31011703137384,-35.562445794344036
2064,-49.512236382992995,-22.82566055888437,-9.306771942643934,-13.848764206234398,-21.496601096007737,-35.82653387661799
2068,-49.64801628721886,-22.96876219633536,-9.478822304495921,-13.976488548876553,-21.715881631119597,-36.13867773623701
2072,-49.735863373225584,-23.155908593262645,-9.768627136557077,-14.201120310675705,-21.972195424748765,-36.49982919413103
2076,-49.77520826304325,-23.384983026351165,-10.172857430900327,-14.5226005780175,-22.266696891355743,-36.907397661895466
2080,-49.76747428689842,-23.650626650066638,-10.68157451566148,-14.936430808338631,-22.59777098353064,-37.35550288115538
2084,-49.716238324622516,-23.944868970547247,-11.279098109052429,-15.434158023579212,-22.96131988483152,-37.835363036255686
2088,-49.627092967831274,-24.257830378186153,-11.944889029322985,-16.00384190535288,-23.350934642382075,-38.33571515034319
2092,-49.50733700767718,-24.578594229272813,-12.654544801343995,-16.63063072776601,-23.758102223449658,-38.84333998568295
2096,-49.365674603352154,-24.896362680151878,-13.381060328877552,-17.297564157187963,-24.17261758038404,-39.343767304917
2100,-49.211909113667105,-25.201765449317975,-14.096298786943949,-17.986493699305278,-24.58316882201513,-39.82207842115607
2104,-49.05644809144085,-25.48797786695853,-14.772440999843651,-18.678876640292614,-24.97793058878577,-40.2636461953738
2108,-48.909546399534484,-25.751385241738962,-15.383277337536182,-19.356348765608992,-25.34510906234261,-40.65478650244751
2112,-48.78048849143485,-25.991797255264174,-15.905442902048065,-20.001224237067657,-25.67355365934406,-40.983461610546634
2116,-48.6770047955686,-26.212349057461413,-16.319741404464168,-20.597090714023743,-25.953510423444953,-41.24012765524044
2120,-48.60501610973003,-26.41912273301769,-16.61247605021204,-21.129452781271702,-26.177367235507266,-41.41858843332624
2124,-48.56856874587361,-26.62041817260387,-16.77649617523552,-21.586238138888064,-26.340140457713503,-41.51659326552488
2128,-48.569837985320625,-26.82571527797896,-16.811735187539878,-21.958118162249786,-26.439635607314003,-41.53605125936254
2132,-48.609248354156975,-27.04457519891005,-16.7252354584527,-22.238806084444885,-26.476454195504893,-41.48293697949144
2136,-48.68577721109662,-27.285724617021085,-16.530722454069753,-22.4254549012163,-26.454007033573138,-41.36696920274191
2140,-48.79730744751159,-27.55631559122604,-16.247665103547064,-22.519002150546918,-26.37846383482556,-41.200988704305786
2144,-48.940762082712624,-27.8611650398363,-15.899719436865922,-22.524163494655177,-26.258448977265925,-40.99992285084841
2148,-49.11192148802721,-28.201899250125873,-15.512675948575572,-22.448974531549112,-26.104460195808226,-40.77943234430436
2152,-49.30513543689405,-28.576206970879092,-15.112318099338328,-22.304086543656346,-25.928220666112175,-40.55457138543606
2156,-49.513247257818435,-28.977492961979408,-14.722618109337944,-22.102072349384937,-25.742158517421565,-40.33877195206985
2160,-49.7278543628199,-29.39503469499733,-14.364420246972776,-21.85678031507762,-25.558966020749683,-40.14321010805431
2164,-49.93980358688092,-29.81454122847767,-14.054510496450062,-21.58261779825979,-25.391056629815196,-39.97642488829198
2168,-50.139812895264555,-30.219033117179194,-13.80499157858595,-21.29375650044173,-25.249889690162394,-39.844110491897005
2172,-50.31922859982018,-30.590092117723113,-13.623033555066641,-21.003441475169556,-25.145348440386826,-39.74912567443122
2176,-50.47089156119124,-30.909480475031582,-13.51105025565752,-20.723549564563594,-25.085328517852997,-39.691721490976725
2180,-50.589868212882045,-31.16087436495915,-13.467143092080518,-20.46430253394355,-25.075455949756773,-39.669822627278364
2184,-50.67369889734545,-31.331298039344013,-13.485553721427411,-20.233922202161253,-25.118735402848866,-39.67917346088062
2188,-50.72203936926991,-31.412007273386227,-13.557058280830663,-20.03819938809379,-25.21510260456642,-39.71337591901883
2192,-50.73592913284299,-31.398882682113683,-13.66950825381387,-19.8802055493842,-25.361098931404783,-39.76406887348941
2196,-50.71704078789894,-31.292511295462425,-13.808734556694107,-19.760364502551294,-25.549890303969192,-39.821457345777304
2200,-50.66707096656815,-31.097989463345684,-13.959760487722775,-19.676826995427273,-25.77162971435804,-39.87513923450679
2204,-50.587229125359464,-30.82435383505197,-14.108047857495526,-19.625895003877382,-26.014012638750266,-39.9149995172044
2208,-50.47783032535231,-30.48367052471458,-14.24057470176214,-19.602343080202807,-26.262960229186017,-39.932015443286446
2212,-50.33817495189547,-30.09003055973426,-14.346752824320795,-19.59969798969864,-26.503498656064483,-39.91897592284532
2216,-50.1668769584805,-29.65868733472047,-14.419215702093746,-19.61055776836584,-26.72083400469316,-39.87111724171165
2220,-49.96252975579914,-29.205311405152536,-14.454317692497586,-19.62685691254469,-26.901411390713864,-39.78653462817801
2224,-49.724383547513334,-28.745165860648342,-14.452093096651454,-19.639911949326972,-27.033689573492893,-39.66619120087914
2228,-49.45280538867111,-28.292150945741525,-14.415632715973764,-19.640276435898578,-27.108570494055158,-39.51352633254974
2232,-49.149566679385856,-27.85793813751401,-14.350147472629178,-19.61768436773673,-27.11965649520367,-39.33387538865408
2236,-48.818111423013285,-27.451457899478502,-14.262052764883656,-19.561350027552766,-27.063484971126737,-39.13390972543262
2240,-48.46380252397755,-27.078770881084544,-14.15818108455037,-19.460625008927007,-26.939660674696384,-38.92111952342164
2244,-48.09397265804143,-26.74314753555696,-14.045031630375545,-19.30581390927168,-26.75068904391931,-38.7032524074397
2248,-47.71766590355248,-26.445252696121756,-13.928039515796327,-19.089026175051877,-26.50147320218403,-38.487721374643016
2252,-47.34515338623016,-26.18353029983137,-13.811037443229797,-18.805105435886315,-26.198661083785527,-38.281133248072344
2256,-46.98735437846491,-25.95488162333183,-13.696068946533622,-18.45262813968955,-25.85002924711525,-38.08903590474063
2260,-46.655136538537796,-25.75549908487305,-13.583479315559508,-18.03473319228623,-25.463903877558256,-37.91578773333154
2264,-46.35837086826137,-25.581575036398693,-13.472073626175385,-17.559465131257944,-25.04854431516711,-37.764380729602266
2268,-46.1047850817558,-25.429759125850467,-13.359285163673857,-17.03953852212923,-24.611574612353138,-37.6362077096824
2272,-45.898927790708754,-25.29749043132696,-13.241533498442124,-16.491705515353832,-24.159714697441252,-37.53094793161279
2276,-45.74159091977441,-25.18335541357856,-13.114936901317002,-15.935913629050862,-23.698966760009107,-37.44671092740399
2280,-45.62977810484784,-25.087405269592868,-12.976272209411531,-15.394226715066578,-23.235119330371827,-37.380372990270914
2284,-45.55704746304434,-25.01120910388527,-12.823878571872767,-14.88938931242073,-22.77426323184409,-37.32793296687364
2288,-45.51406388425785,-24.957534659061672,-12.658306766490055,-14.443106092028023,-22.323131948418286,-37.284828262398904
2292,-45.48936607347367,-24.92978380440532,-12.4827456962506,-14.074348341494886,-21.88928734131456,-37.24630361830936
2296,-45.470381313439866,-24.93136235616352,-12.303287184479096,-13.797975615272794,-21.481196604745243,-37.207882646226004
2300,-45.44454227718205,-24.9649965042533,-12.128904926414394,-13.623711050106712,-21.108107563389837,-37.165810965560816
2304,-45.400242510453495,-25.031902068922996,-11.970936263424038,-13.555372146812635,-20.77959202441162,-37.117291726623066
2308,-45.327514172489515,-25.130867093478003,-11.842059181376877,-13.590406464844138,-20.504813495258148,-37.06051595007569
2312,-45.2185598109472,-25.257546481332987,-11.755046130974742,-13.71997829145365,-20.291781844939354,-36.99467357319195
2316,-45.06830491119714,-25.404267706291275,-11.721619536303473,-13.929777468619896,-20.14682333398778,-36.92007338559587
2320,-44.87491808092673,-25.560376928751808,-11.751511519587577,-14.20140896006039,-20.074258875095783,-36.838274508935946
2324,-44.640058904624226,-25.71291767188978,-11.85164716342749,-14.514018954622879,-20.076140410245223,-36.752030459207546
2328,-44.36869857882004,-25.8474680718604,-12.025439869466569,-14.845920417304812,-20.152003963169967,-36.66499265852805
2332,-44.068595364234675,-25.949137556673104,-12.272353116146782,-15.1761936005338,-20.29877375016319,-36.58131286247126
2336,-43.749592845430655,-26.003740635592028,-12.587859149351939,-15.486241182337256,-20.510929662660146,-36.50527928257867
2340,-43.422782293474036,-25.998987878824394,-12.963714575272963,-15.761090569742235,-20.78085710005224,-36.44096350713691
2344,-43.09948566342249,-25.92544079981343,-13.38836284321573,-15.990176550887572,-21.099208779696614,-36.391801524659606
2348,-42.790162392443115,-25.77715135058692,-13.8474169233399,-16.167564730522002,-21.455249540581736,-36.36017680651942
2352,-42.503557035173635,-25.552153059561608,-14.32436517727527,-16.291846900493745,-21.837322567851835,-36.34720637948262
2356,-42.24638022773451,-25.25296967689817,-14.801596101431235,-16.365933119552537,-22.23352107920672,-36.35283266266042
2360,-42.02352151400292,-24.88705101356992,-15.261584800107023,-16.396720952166653,-22.632430673662054,-36.376083382296
2364,-41.83853123059467,-24.46686072302353,-15.68794161253948,-16.394481458432033,-23.023711308615017,-36.41526708606835
2368,-41.6941354181211,-24.009458956174246,-16.066175774984355,-16.371944312363414,-23.398439082290377,-36.46802509192603
2372,-41.592749007725395,-23.535677968456465,-16.384276667292657,-16.34328019044191,-23.74931907226524,-36.531349752180525
2376,-41.53701515694653,-23.069054565926905,-16.63324516123317,-16.323169750011242,-24.070860650173664,-36.60167209875183
2380,-41.53024958124686,-22.6345269723449,-16.80751450590255,-16.325940650874436,-24.35943357241212,-36.67497822435309
2384,-41.57656627402202,-22.25681938787197,-16.90509320981618,-16.364652022144956,-24.613077912847096,-36.74688203092508
2388,-41.68060555921851,-21.958613391683947,-16.927417583381207,-16.450159804944672,-24.831119657534874,-36.8127302259119
2392,-41.847023331300996,-21.75884317456059,-16.87910705099867,-16.590384462072684,-25.01381122751356,-36.867918239067656
2396,-42.0799430125122,-21.671436407135182,-16.767774944129023,-16.789939497700473,-25.162134335813928,-36.90845464750591
2400,-42.3823971838718,-21.704558197338287,-16.603801607699047,-17.050020772469693,-25.27766588772423,-36.931555599064964
2404,-42.75566095604623,-21.860219198104005,-16.39984680818108,-17.368330998139477,-25.36231981616018,-36.93598259361444
2408,-43.19849028132202,-22.134181712236693,-16.170032438333223,-17.738977684979098,-25.417947120786156,-36.92203652096393
2412,-43.70647453819021,-22.516262569044116,-15.928961050340257,-18.152509309485218,-25.44597325197377,-36.8913424578235
2416,-44.27171016783578,-22.99109174936952,-15.690755187637047,-18.596239105432698,-25.447216233276425,-36.84655550970138
2420,-44.882783690481055,-23.539150492368293,-15.46811869972675,-19.05478041316255,-25.42182216712336,-36.79095489910299
2424,-45.524903569639484,-24.137794888366926,-15.271332901946623,-19.510603577666636,-25.369174517530823,-36.72784452843951
2428,-46.18013343973138,-24.762147891298863,-15.107268404949783,-19.94457948562486,-25.28779313356814,-36.659836494404026
2432,-46.82788165716106,-25.385998739466213,-14.978701806668735,-20.33667017444286,-25.17540136216983,-36.58824335486162
2436,-47.44579453892727,-25.98286450180965,-14.884174109310072,-20.66687540773674,-25.029249849694068,-36.51272708056629
2440,-48.01096597874088,-26.52714789347146,-14.81834611253786,-20.916304110462978,-24.846536206358195,-36.43113706778939
2444,-48.50120088024631,-26.995180469439966,-14.772622920609315,-21.068128692640133,-24.624675367687416,-36.339396793943614
2448,-48.896160897187976,-27.366065703239432,-14.735921651723643,-21.108338009010904,-24.36137642484846,-36.231461865790884
2452,-49.178432039727696,-27.622449042694665,-14.695646960985343,-21.026409021751576,-24.054719695514148,-36.099548861663614
2456,-49.33458775886148,-27.751333889358957,-14.63891825452569,-20.81599344208741,-23.703413365806103,-35.93477929442652
2460,-49.3561434813905,-27.7448344742141,-14.553875530346685,-20.47551195432984,-23.307189368342208,-35.72815359677491
2464,-49.240184909848445,-27.600628393774954,-14.430783720698697,-20.00846419126029,-22.867177246696496,-35.47164199881741
2468,-48.98958929363246,-27.32203130118428,-14.262816894997938,-19.4234239319063,-22.386206369876593,-35.15926582128115
2472,-48.61296602299111,-26.9178458289864,-14.046612788564516,-18.733865794867935,-21.869116252030395,-34.78815129544831
2476,-48.12442572865736,-26.40211584890617,-13.782656204735828,-17.95789880428915,-21.32306253951686,-34.359462793507475
2480,-47.543066052795524,-25.79367662011023,-13.475338975775129,-17.117754160852062,-20.75759314457618,-33.87895302665499
2484,-46.891962826082775,-25.115277466118304,-13.132495075836749,-16.238828422395805,-20.184251155362674,-33.356875659671765
2488,-46.19666139308076,-24.39225446274899,-12.764465309982311,-15.348335896130498,-19.615723579859385,-32.80726136098075
2492,-45.48345515897186,-23.651018119789107,-12.383030613893018,-14.473888478009766,-19.064816172478313,-32.246808945303755
2496,-44.77778141057183,-22.917656776617505,-12.00052398099755,-13.642277984469825,-18.543514252063478,-31.693634242071706
2500,-44.102846520460055,-22.21673871032846,-11.629137160504907,-12.878456302145205,-18.062171626238314,-31.165931150186676
2504,-43.47842419789266,-21.570240431825713,-11.280254628055518,-12.20455356677624,-17.628771401038897,-30.6805301420193
2508,-42.91985139523413,-20.996620907980358,-10.963770554913076,-11.638908035789747,-17.248335687108213,-30.25148515820848
2512,-42.43740101877001,-20.51020712025272,-10.687542558622065,-11.195264904870486,-16.922691079188056,-29.888946008959355
2516,-42.03615182568792,-20.120976280136063,-10.457096067621192,-10.882249213592457,-16.65068329817597,-29.598462232026996
2520,-41.7162273841241,-19.834570797073514,-10.275469134595713,-10.703007524220222,-16.428675800862177,-29.380631980103267
2524,-41.47315543231314,-19.652295631932173,-10.143014700209221,-10.65487079041884,-16.251070021494293,-29.230944296040402
2528,-41.298278675403715,-19.571065577094682,-10.057187382001546,-10.72912014092002,-16.110749277331117,-29.139828404175816
2532,-41.17940202070394,-19.583530276905503,-10.012567272286589,-10.91115661312975,-15.99953781638008,-29.093077189781827
2536,-41.1018541281704,-19.6785801440267,-10.001305006794192,-11.181288170550156,-15.90873280701498,-29.072735618583717
2540,-41.049871484721294,-19.8421647136507,-10.013879004773647,-11.516032905114635,-15.829587211797127,-29.058333680682747
2544,-41.008012519322044,-20.05818564071886,-10.03989608101805,-11.889647953786081,-15.753584264341445,-29.028269852246137
2548,-40.96239813604568,-20.30935049279316,-10.068808974819051,-12.275694767094251,-15.67253584126986,-28.961282890320422
2552,-40.90177997869774,-20.57807199147083,-10.090627780533875,-12.648625203322434,-15.578710207714035,-28.838053595138902
2556,-40.818452996953255,-20.84745986603197,-10.096666080188747,-12.985345126409648,-15.465117081306618,-28.64285740047076
2560,-40.70885294678253,-21.10222428661722,-10.080152994174195,-13.266542065628599,-15.325862326332473,-28.364978913702522
2564,-40.57361284250426,-21.329233892611008,-10.036492530259531,-13.477547571812623,-15.156428910122083,-27.999593427476388
2568,-40.41706292062891,-21.517701661841723,-9.963182533235933,-13.608736393060873,-14.953910089081539,-27.548064801265767
2572,-40.24643063110368,-21.659244656928266,-9.859645997042943,-13.655680382743785,-14.717356916942924,-27.017832504025964
2576,-40.07101610500276,-21.74804592011017,-9.727177529567259,-13.619208126498327,-14.448281102115832,-26.422026333737467
2580,-39.90139480524642,-21.78107847744592,-9.568942020065519,-13.50526958535105,-14.15110108760785,-25.77875786610903
2584,-39.748547188482426,-21.75818393873126,-9.389828706943865,-13.324408548375713,-13.833250635415414,-25.10998678184343
2588,-39.62292136094053,-21.681920167454894,-9.196116696544372,-13.090832623043653,-13.504868921048718,-24.440031707532977
2592,-39.533609441027224,-21.557290620585214,-8.995111209123145,-12.82128958879979,-13.178198547821472,-23.79395725093709
2596,-39.48777661401274,-21.39144584438887,-8.79487322577726,-12.533933865341652,-12.866792285348016,-23.196011372797727
2600,-39.490258166011984,-21.19325322977903,-8.603950991771342,-12.247182532772113,-12.58448435483001,-22.668121752745513
2604,-39.543146977799786,-20.972586452161337,-8.43095297630764,-11.978528246668796,-12.344112961312272,-22.228451841260757
2608,-39.64537827131673,-20.739416099358,-8.283998680890795,-11.743466860113225,-12.156222638032602,-21.890192668171647
2612,-39.79254388198055,-20.503017937560305,-8.170284305033233,-11.554821831641378,-12.028124453253437,-21.66086115708782
2616,-39.977132990822234,-20.271550036868515,-8.095919919280483,-11.422565707681859,-11.96351744936182,-21.542204473400847
2620,-40.189135386994664,-20.05195906008181,-8.065919736910429,-11.353912130715917,-11.962544502062187,-21.530534636870847
2624,-40.41677527675533,-19.850012438774137,-8.084102091623267,-11.353348079372411,-12.022029203082603,-21.61724246674178
2628,-40.6472448138396,-19.670374811999977,-8.152822937453728,-11.422496176633747,-12.135805106828098,-21.789413403033645
2632,-40.86748910681776,-19.516817417442635,-8.272683900536446,-11.559950372663447,-12.295227622718349,-22.03062816658492
2636,-41.06508100067448,-19.39258169605628,-8.442340474807892,-11.76122303777101,-12.489899311735677,-22.32196868713181
2640,-41.229041613340385,-19.300688118956263,-8.658355905401534,-12.018765206244966,-12.708452220831854,-22.643088078498717
2644,-41.35040538461775,-19.243927444009884,-8.915010084652332,-12.321991617796147,-12.939216661820774,-22.973209004769046
2648,-41.42252989738348,-19.22452196250446,-9.204174335687973,-12.65743404905036,-13.170812812689723,-23.29210285843235
2652,-41.44137376077582,-19.243722428809924,-9.515531591147257,-13.009278367413126,-13.392844335052432,-23.581204551385905
2656,-41.40591625857337,-19.301590487741844,-9.837291461047098,-13.360377001665592,-13.59673145825354,-23.824859503528046
2660,-41.318621354718154,-19.39695800117306,-10.15723136434242,-13.693522430061563,-13.776453454121322,-24.011452182619816
2664,-41.18568804691654,-19.527397421398383,-10.463737976211439,-13.992667323613556,-13.928909709583671,-24.134127250964962
2668,-41.01695465792084,-19.689155892256647,-10.746662768284814,-14.243968187464326,-14.053825918524748,-24.191021162051698
2672,-40.82553701552104,-19.87718680280155,-10.998000933351818,-14.436727734682844,-14.153356855499062,-24.185112319824746
2676,-40.627291101577946,-20.085370482753437,-11.212383978586795,-14.564252145789245,-14.231528060381626,-24.123770292841446
2680,-40.440021122020006,-20.306803439757218,-11.387221432447895,-14.624436627570892,-14.293519258778286,-24.017963860565867
2684,-40.282300863264126,-20.53397140440284,-11.52234602698823,-14.619873431174021,-14.34480026469925,-23.881130680369587
2688,-40.17198547251884,-20.758830549664832,-11.619290925900163,-14.557514662397917,-14.390317517580973,-23.72791978535337
2692,-40.124733320770495,-20.973041241010502,-11.68056244014152,-14.448123630235942,-14.434020366405397,-23.573115240724153
2696,-40.152830408811724,-21.168529743219032,-11.709181105828574,-14.305653247540258,-14.478819865147,-23.430867949107146
2700,-40.264349466461105,-21.338266909747905,-11.708458523687671,-14.146434157183297,-14.526769144493114,-23.314093826584692
2704,-40.46251333953617,-21.47699811933962,-11.681822063394714,-13.987994321216062,-14.579173288149967,-23.233846713960304
2708,-40.74525003838104,-21.581795811188925,-11.632636643023535,-13.847566265582087,-14.636537384898205,-23.19866813295883
2712,-41.105120878351535,-21.652499934271805,-11.564152826914809,-13.740580020386357,-14.698470069453665,-23.214079026821064
2716,-41.52977159552735,-21.692069785480463,-11.479653130697985,-13.679402052562583,-14.763639622424959,-23.282311452216174
2720,-42.002818965936676,-21.706661299221345,-11.382654048534299,-13.67236151971367,-14.82973746547508,-23.402213237964528
2724,-42.50494972196477,-21.705202947664603,-11.276967356981128,-13.723032439729588,-14.893411545491363,-23.569255354621863
2728,-43.0151300835979,-21.69849254507149,-11.166620852758433,-13.829892343623426,-14.950312230780819,-23.775737798703712
2732,-43.51198997872351,-21.698100256725805,-11.055812108462106,-13.986572559455178,-14.995469889762333,-24.011363201950036
2736,-43.97538521316667,-21.715341019089827,-10.948970393449189,-14.182724209068754,-15.024019369889873,-24.264171506801066
2740,-44.387913256501996,-21.760348675409507,-10.850763321888161,-14.405214453465499,-15.032000210127503,-24.521589941832865
2744,-44.7360748812988,-21.84117551409449,-10.765843135007007,-14.639291642516106,-15.016923269049121,-24.7713380854907
2748,-45.01096727675206,-21.962987240568125,-10.698368476527545,-14.869587299734906,-14.978036380717102,-25.00214186356981
2752,-45.20863156573793,-22.127588674269617,-10.6515730586433,-15.081055908178948,-14.91643815237973,-25.204370952248905
2756,-45.33017398944088,-22.333428682023843,-10.627595454894795,-15.259916146534342,-14.835140547950825,-25.370633499149445
2760,-45.381589105486995,-22.575970402496317,-10.62752547475501,-15.394460845917816,-14.738998777530714,-25.496191823292527
2764,-45.373148437948714,-22.848197371821367,-10.651499272062606,-15.475573183088219,-14.634409851474743,-25.579072927090486
2768,-45.31840363977693,-23.141175667417496,-10.698802921837244,-15.49699282229664,-14.528864656602579,-25.619943796735683
2772,-45.23304525370174,-23.444756547723866,-10.768073103768398,-15.455524731192334,-14.430545557651211,-25.621932957633174
2776,-45.13379017556624,-23.748422559096984,-10.857579714624542,-15.351239761565845,-14.348007772774002,-25.590442420618487
2780,-45.03723432620461,-24.042054462067085,-10.96536840572737,-15.187453073979972,-14.289754268239928,-25.532789866100686
2784,-44.95853443306724,-24.31635811677644,-11.08904885068494,-14.970245129554925,-14.26352213851043,-25.457535014973153
2788,-44.9099956972336,-24.56294230791451,-11.225294546751886,-14.707570329682246,-14.275357342400937,-25.37357776412558
2792,-44.89987962936306,-24.774298057125904,-11.369366880120134,-14.408256033485916,-14.328758149660496,-25.28928229863689
2796,-44.93170911553693,-24.943898784450194,-11.514914446114199,-14.08115132542953,-14.424093638076334,-25.211788925242345
2800,-45.00409145096677,-25.06640006431759,-11.654045775332373,-13.734464126457084,-14.558299696927751,-25.146478875309306
2804,-45.110925977525,-25.13780402124718,-11.777570477211334,-13.375253918603827,-14.724815158733206,-25.096535608499497
2808,-45.24195424817158,-25.15558662337706,-11.875438616215694,-13.009185994210268,-14.913862361626212,-25.06270435094572
2812,-45.383728083749226,-25.118917057433578,-11.937504462117916,-12.640718480031119,-15.113220155778,-25.043414403062947
2816,-45.52095984115232,-25.028981323994937,-11.954568677038784,-12.273681649551905,-15.309419236326004,-25.035242693832735
2820,-45.63796877842094,-24.88917921866514,-11.919377184378542,-11.911912766987044,-15.48901710843038,-25.033464770222565
2824,-45.71987645809785,-24.704932171203843,-11.827227308757537,-11.559579072962105,-15.63960159226671,-25.032452334928706
2828,-45.75344785764629,-24.483108852743076,-11.676116263136084,-11.221101303425344,-15.750438946793548,-25.025920898441793
2832,-45.727750169380016,-24.231345967164863,-11.466643980957024,-10.900859257958812,-15.812910926384545,-25.007202294438894
2836,-45.63480048732837,-23.95750779814915,-11.201858673485063,-10.602849917169298,-15.820839685552746,-24.969620350132665
2840,-45.470153441050044,-23.669279392518174,-10.887014017540794,-10.33029507041132,-15.77062202671094,-24.90685313059986
2844,-45.233262274634704,-23.373773229525725,-10.529130960009653,-10.085169904207987,-15.661088263919071,-24.81316310608386
2848,-44.9275702210686,-23.077170059001695,-10.136425605174802,-9.86779884682842,-15.493194385780912,-24.68357178945055
2852,-44.56043666450216,-22.784555218934592,-9.717814158015113,-9.676762093329387,-15.269763899946659,-24.5141634739811
2856,-44.1429352886874,-22.50000291309227,-9.282600301506694,-9.509177537452828,-14.995338218322912,-24.302555871268716
2860,-43.689372865261724,-22.226725185008352,-8.840221930570024,-9.361152222793717,-14.675968592792897,-24.048356445296132
2864,-43.21636902132064,-21.96706711161465,-8.399895786661311,-9.22816096369933,-14.31879459518339,-23.75341029526953
2868,-42.74158793189912,-21.722367561225322,-7.97020561383174,-9.105333804631899,-13.931496840424924,-23.42183796670589
2872,-42.28244684540036,-21.492918990595292,-7.558848371924624,-8.987810633746596,-13.521872347984289,-23.059992230818768
2876,-41.855070475292756,-21.278175023877125,-7.172641993344886,-8.871219896980202,-13.097658889356657,-22.67636450174806
2880,-41.4735029808917,-21.077085269986096,-6.817639341209425,-8.752111003326952,-12.666499362632711,-22.28130210597859
2884,-41.149055001421644,-20.88833191390135,-6.499121879130137,-8.628142807252283,-12.235887160938907,-21.886418567191342
2888,-40.88977744424479,-20.71041360533083,-6.221443713378965,-8.498050187233009,-11.81309205476563,-21.50378549607822
2892,-40.70019310190219,-20.54170351922377,-5.987878775982113,-8.361571316249341,-11.405167718970592,-21.14511667197571
2896,-40.58134290100117,-20.380546964982386,-5.800550075804362,-8.219396816042414,-11.019021713842859,-20.821041416624414
2900,-40.53100764189398,-20.22528319614511,-5.660334453900232,-8.072991933196759,-10.661365854383984,-20.540401911624276
2904,-40.54394114857838,-20.07409086016271,-5.566653371631304,-7.924184584204888,-10.338431118672098,-20.309554439247528
2908,-40.61216087091423,-19.92480138927772,-5.517299248577804,-7.774692605843922,-10.055588307293887,-20.13186157850789
2912,-40.72550666688619,-19.774978367792137,-5.508581790021353,-7.6259115238672255,-9.817138902240771,-20.007633932943627
2916,-40.87255024278827,-19.622383303931944,-5.535881834110199,-7.479077324909505,-9.626358365187697,-19.934573133618162
2920,-41.04164969036471,-19.465618048100406,-5.594367377458291,-7.335590569222376,-9.485613159967478,-19.908495963910624
2924,-41.221842728754304,-19.304623301071885,-5.679534034451888,-7.197220182273718,-9.396357819305374,-19.9240774939677
2928,-41.403465213223384,-19.140908979258736,-5.787453011857016,-7.0661343551685025,-9.359039170062367,-19.975534085593
2932,-41.578603850552845,-18.97760722780412,-5.91483825562269,-6.944900157086067,-9.373074421382814,-20.05729123455435
2936,-41.74147155084999,-18.819411124716108,-6.0590225183313615,-6.8365122580134985,-9.436945507490675,-20.164580178100497
2940,-41.88861348735733,-18.672305325092864,-6.217786467268571,-6.744323457180013,-9.548259168427057,-20.293761842707806
2944,-42.01881730323346,-18.543015734905005,-6.389014597700091,-6.671775548816547,-9.70365164471966,-20.442253731094098
2948,-42.13279556438,-18.438343622741236,-6.570371508522593,-6.622069672648256,-9.898642555330358,-20.60819616703369
2952,-42.23286586799819,-18.364696645950726,-6.759289168828215,-6.598037264393118,-10.127654009670986,-20.790128515689883
2956,-42.322732506249686,-18.327953829453488,-6.953329760727133,-6.602273380030571,-10.38424742878993,-20.986791017020003
2960,-42.407208445199366,-18.33348491346802,-7.150655689328086,-6.637298845770751,-10.661408242721567,-21.19693281837419
2964,-42.49165288463022,-18.386052444419143,-7.350269715526291,-6.705492597551657,-10.951723268005352,-21.418992670938575
2968,-42.58113395839682,-18.489530812323288,-7.551934375554592,-6.808801354807042,-11.247515496984287,-21.650721143767058
2972,-42.679576326758294,-18.64658212405501,-7.755918684452381,-6.948440647031309,-11.54111393579956,-21.888943759250996
2976,-42.78913443081275,-18.858380111879512,-7.962693911393735,-7.124705682152623,-11.82528296341923,-22.12955117020998
2980,-42.90982574105823,-19.124297504188192,-8.172545523164779,-7.336799450290813,-12.093631759686575,-22.36761665432126
2984,-43.039373069445226,-19.441478624095897,-8.38508908274197,-7.5825939200461985,-12.340857350053929,-22.597542918230513
2988,-43.1733291680305,-19.80444422463341,-8.598888025806854,-7.858464907825952,-12.562897651382306,-22.813305255561357
2992,-43.30564067075784,-20.205016876270726,-8.811459457534486,-8.159444080665002,-12.757162697017888,-23.008914749973602
2996,-43.42963626228508,-20.632688817749386,-9.019723375968676,-8.479721167360257,-12.922825182413648,-23.179047997245018
3000,-43.53913973551378,-21.075254728071364,-9.220617389309636,-8.813236544497208,-13.060921920817563,-23.319590332489163
3004,-43.62934109337005,-21.51945024370695,-9.4115321337383,-9.154079214622753,-13.174056225474452,-23.427883765834014
3008,-43.697287401418066,-21.951539645781374,-9.590468507035435,-9.496656447383891,-13.26577305553709,-23.50271482036066
3012,-43.74210118259622,-22.357986051283987,-9.75604783885572,-9.835791654295774,-13.339876593126597,-23.54422312579355
3016,-43.76502882021016,-22.726261297482512,-9.907462823081723,-10.166811918950405,-13.399872016974452,-23.553806452622055
3020,-43.76925641706841,-23.045641540372298,-10.044291042962715,-10.485496949741007,-13.448515050067739,-23.53393063248266
3024,-43.75940854074333,-23.307808299738845,-10.166120149077681,-10.78780387128074,-13.48743201476495,-23.487779381874986
3028,-43.7408385115699,-23.507278508748026,-10.272159372398333,-11.069541801449446,-13.516920434831325,-23.41886320490378
3032,-43.71896588925198,-23.641819618413006,-10.36111204684874,-11.326295701336823,-13.536074640800042,-23.330775454860664
3036,-43.69880038639169,-23.71285059141785,-10.431373488900977,-11.553694208787357,-13.543171730247982,-23.227117651020745
3040,-43.68455262709954,-23.725576083502958,-10.481330010555569,-11.747817502205887,-13.536035132421757,-23.11142525156093
3044,-43.67918189129809,-23.688598418701797,-10.509513357514356,-11.905499289969628,-13.512160143595322,-22.986964323560393
3048,-43.683927374140254,-23.613040123093622,-10.514613527367828,-12.024494584561548,-13.468683521819036,-22.856488012877744
3052,-43.698038462789505,-23.511463419176707,-10.495536340798202,-12.103637644817766,-13.40245724026395,-22.72214902431571
3056,-43.71882566143477,-23.39682687163281,-10.451583220982249,-12.143005183647254,-13.31035220280837,-22.58562374499803
3060,-43.741921478541045,-23.281506876300153,-10.382606803045851,-12.143922945745393,-13.18967932007863,-22.448311731771646
3064,-43.76158179204772,-23.176358859427204,-10.28898646648868,-12.108711426914482,-13.03858359425263,-22.311482131579893
3068,-43.77103526686826,-23.089949282506886,-10.171489422392954,-12.040326047030707,-12.856429751673621,-22.176404152974726
3072,-43.76302597302103,-23.028165939034736,-10.031214949906307,-11.942162939809462,-12.644261994401923,-22.04455340766887
3076,-43.730570164689574,-22.99422032730297,-9.86966259165876,-11.818093243162222,-12.405251064349283,-21.917822815080708
3080,-43.66770932198926,-22.988796262141868,-9.688729433281605,-11.672506622759299,-12.144867617009517,-21.798505587868675
3084,-43.57000732177118,-23.01010288576176,-9.490457227446264,-11.510142152797837,-11.87061454434628,-21.688910360489444
3088,-43.43477080707274,-23.053863628656877,-9.276616144004253,-11.335749150833907,-11.591440477899965,-21.590747237991668
3092,-43.26118767406264,-23.1134800065553,-9.048397389952878,-11.15379929808976,-11.317105432012804,-21.50457684966521
3096,-43.050526032937384,-23.18050791759021,-8.806372037639663,-10.96834773285954,-11.057618555453473,-21.429491166237568
3100,-42.80632035096824,-23.245338465293994,-8.550636359659928,-10.782919399851776,-10.822646187133213,-21.362992303066687
3104,-42.53440167209809,-23.29792302044514,-8.281025269727238,-10.600310011370023,-10.620800472277322,-21.301017795176403
3108,-42.24278271137765,-23.328559369547005,-7.997446426301957,-10.422424040785867,-10.458932508067091,-21.238196940070434
3112,-41.94152892559006,-23.328848127416066,-7.700458507905204,-10.250377100931873,-10.341655509723553,-21.16844782962628
3116,-41.64262002839187,-23.292732225826114,-7.392012391547254,-10.084879492436285,-10.271159756158797,-21.085831932456127
3120,-41.35958297995706,-23.217266347654938,-7.076024898888697,-9.926640383280526,-10.247169056726406,-20.985389684062188
3124,-41.10667651707348,-23.102786419462582,-6.75849505084575,-9.776539713795207,-10.266908346229915,-20.863733929880567
3128,-40.89768042676155,-22.952477211577378,-6.447180147123329,-9.635588287039955,-10.325159245954563,-20.719413358016357
3132,-40.744591344457085,-22.7716161497268,-6.151066844450607,-9.504877185915525,-10.414568685377663,-20.553177972510532
3136,-40.65648793004719,-22.566739071379885,-5.879778567732169,-9.385593908309882,-10.526201280882649,-20.368151326075083
3140,-40.63861403577831,-22.34477606870637,-5.642851731865583,-9.278967279435571,-10.65011247954472,-20.169749561488672
3144,-40.69165546539262,-22.112168052525845,-5.448822536005803,-9.18602418621244,-10.775753680621479,-19.965243388053523
3148,-40.81132726173887,-21.87413858936077,-5.30429633478428,-9.107275633684555,-10.892254927930587,-19.763079265049733
3152,-40.988481050334954,-21.634371410110244,-5.2132926483626685,-9.042559300773394,-10.988748739528106,-19.572168762195584
3156,-41.2097777493249,-21.39514208804382,-5.176976710829014,-8.991081604275243,-11.054759820024291,-19.401209223873316
3160,-41.45870625214172,-21.157672682624366,-5.1936205041264465,-8.951465989865957,-11.080516022647942,-19.257942354363387
3164,-41.71667448872642,-20.922446598498794,-5.258611053980366,-8.921642807815157,-11.057097219761074,-19.148332146261495
3168,-41.96409654102948,-20.68944878984557,-5.364537807041081,-8.898668514826419,-10.976556648473192,-19.075861027953213
3172,-42.18156753342711,-20.45846927019605,-5.501527129622496,-8.878698611205818,-10.832220395081066,-19.041201106062736
3176,-42.351136217930936,-20.229506268498945,-5.657856655774091,-8.857182579633548,-10.619181117010765,-19.042311130862196
3180,-42.45748696212395,-20.003092428937098,-5.820665256169446,-8.82912264417249,-10.334787304654945,-19.074775145722
3184,-42.488824633255625,-19.780361485664585,-5.9765837272019136,-8.789254744672428,-9.978960226688038,-19.132199359000023
3188,-42.437457959771216,-19.56290261196084,-6.11233881253716,-8.732235667462765,-9.554385231268936,-19.206665017634847
3192,-42.300221711222896,-19.352606606267415,-6.215505683419692,-8.65301818862571,-9.06671471041506,-19.289313336694146
3196,-42.078765003817445,-19.151581167308784,-6.275414066066142,-8.547404379904068,-8.524765148817576,-19.37100314317016
3200,-41.77953064699501,-18.961992001530255,-6.283969735135996,-8.412533213360478,-7.940521291283794,-19.44284713025707
3204,-41.41326409566611,-18.785698362086748,-6.236164569745224,-8.247096341446184,-7.328828278780988,-19.496526915888126
3208,-40.99413731239371,-18.623800460915394,-6.13030176079209,-8.051334892905418,-6.7068758357120375,-19.52452166963535
3212,-40.538753981047606,-18.47637470332393,-5.968121194253812,-7.827011264371755,-6.093655397279091,-19.520464718490004
3216,-40.06520157914445,-18.3425243799306,-5.754870777503322,-7.577407241107016,-5.509396050737802,-19.479662840135184
3220,-39.59208460599351,-18.220605285140525,-5.499138127634526,-7.307196469212191,-4.974802914334457,-19.399602393775616
3224,-39.13742723581633,-18.10843466222957,-5.212264746099186,-7.022073563318614,-4.510002036333832,-19.280280491958546
3228,-38.71752459317975,-18.003485147833498,-4.907412522112068,-6.728250931916438,-4.133356841910259,-19.12437972648603
3232,-38.345969562093714,-17.903192030025156,-4.598515430368574,-6.432032490357641,-3.860425573581238,-18.93737295084815
3236,-38.032974102875045,-17.805364316533275,-4.299240085939401,-6.139498183826688,-3.7031478645370655,-18.727502303512765
3240,-37.784903579144775,-17.708491439201936,-4.021909801199376,-5.856139004067049,-3.669140922833586,-18.505446842267315
3244,-37.6039513500553,-17.611789746596877,-3.776414359282472,-5.5863670335660816,-3.761037616835456,-18.283599344512048
3248,-37.48808968969787,-17.515100784982227,-3.569368280208181,-5.333100619010491,-3.9760283554275953,-18.0751166738
3252,-37.43151756464588,-17.418887782663028,-3.403837653787529,-5.097719223113236,-4.3058440193636685,-17.892996730543828
3256,-37.42560414601459,-17.324392785418674,-3.2796767270323666,-4.880444427652138,-4.737213464537725,-17.749276189055745
3260,-37.460026154137246,-17.23374988991852,-3.194182387323946,-4.680911354185797,-5.252598960207823,-17.654265939241547
3264,-37.52375818199613,-17.149842291678375,-3.1427458915369777,-4.498685289931879,-5.831039733107907,-17.615782452151578
3268,-37.605812355846965,-17.075937619308146,-3.1194317285564703,-4.3337072476603815,-6.449145249774124,-17.6385191843794
3272,-37.69582529590595,-17.015303274622376,-3.1175892893337096,-4.186776442462066,-7.082355365653142,-17.72375598692597
3276,-37.78454106614186,-16.97089220298968,-3.1305025328853255,-4.060033190769064,-7.7064053431347554,-17.869435033378114
3280,-37.864093904949755,-16.94500487301625,-3.1519106359156437,-3.957225211383157,-8.298745056518497,-18.070461515622284
3284,-37.928037192469084,-16.938878761800495,-3.1762855270921935,-3.883615182321035,-8.839723250140164,-18.319138255633284
3288,-37.97128580679092,-16.95238701089225,-3.198983721250829,-3.845646368155649,-9.313570422635348,-18.605821216241228
3292,-37.99023541867028,-16.98410357375524,-3.2164735820520938,-3.8505835933825154,-9.709287185394071,-18.91990485260631
3296,-37.98312536080516,-17.031758080776644,-3.226639982277496,-3.9061568876814796,-10.021369050492607,-19.251034155368362
3300,-37.950433547906066,-17.09281447041885,-3.2289443740356774,-4.020024763703266,-10.250121214209726,-19.5902351911867
3304,-37.895051083846504,-17.16489528888037,-3.224272380460174,-4.198947410587076,-10.401395095953012,-19.930702036701764
3308,-37.82219073502307,-17.246018279234686,-3.214572196576693,-4.447840449830426,-10.485834224514571,-20.26820539908091
3312,-37.73914134484089,-17.334781533306316,-3.202532517831216,-4.76901181315648,-10.517848026155638,-20.60121533306172
3316,-37.65489862956024,-17.430532575411494,-3.1914001440865394,-5.16171090864484,-10.514420810211634,-20.930743806105962
3320,-37.57955608949278,-17.533381011619433,-3.1848190844858997,-5.621887751558371,-10.493727440761523,-21.25980917008094
3324,-37.523410587968,-17.643963597955167,-3.1865849506500576,-6.142073316382651,-10.47360193068365,-21.59252108804917
3328,-37.495993178018495,-17.76311344919556,-3.2004093845431676,-6.711489965768949,-10.47010133787427,-21.93300332081338
3332,-37.50534792884936,-17.891690703365224,-3.229860409103767,-7.316552518296306,-10.496431524653334,-22.284441597714743
3336,-37.55767381951589,-18.030632261508064,-3.2784462708299498,-7.941702839250051,-10.562274164720854,-22.64837566955134
3340,-37.65714793236476,-18.181013975348353,-3.3495923475207916,-8.570300762737014,-10.673339512320785,-23.024169060886365
3344,-37.80570655761891,-18.34392390371285,-3.446329798146978,-9.185365542674127,-10.831029066038207,-23.408618011810454
3348,-38.002790878724966,-18.52020025955082,-3.57081055041764,-9.77023963684006,-11.032333118190184,-23.79582859528307
3352,-38.24524732331354,-18.710247798812755,-3.7239251327101037,-10.309374588850307,-11.270178220613126,-24.177523535464534
3356,-38.52748575347717,-18.914011748028056,-3.905144969163849,-10.789266147864534,-11.534248879895816,-24.543749861096703
3360,-38.84179941333764,-19.130971360500848,-4.11247291179083,-11.199338384344577,-11.812076775907988,-24.883769676585075
3364,-39.17873254262358,-19.360031139556156,-4.34238189995479,-11.532586839502958,-12.090190777157222,-25.186948124201685
3368,-39.527545640460616,-19.59940287508992,-4.589814365295101,-11.785980702156044,-12.355284490199804,-25.443614179213572
3372,-39.87688783769772,-19.846655339893278,-4.848386355127792,-11.960691463265071,-12.59539844597514,-25.64590304813841
3376,-40.21559685095433,-20.098915395202926,-5.110760406993534,-12.062061384712333,-12.80095353149479,-25.788445949620073
3380,-40.533339001343094,-20.3529905993954,-5.368968766563675,-12.099105022398044,-12.965362610103021,-25.868689534033493
3384,-40.82087356595826,-20.60525375851596,-5.614559744400638,-12.083499620873313,-13.0851115450458,-25.886785661013516
3388,-41.070029500352526,-20.851415457899957,-5.838712711541699,-12.028336578512672,-13.159502337263987,-25.84524806313659
3392,-41.27367059421254,-21.086454813592997,-6.032570221126212,-11.947014545252296,-13.19035522680777,-25.74862904295834
3396,-41.425800787419675,-21.30480847987767,-6.187830363155166,-11.85243535677429,-13.18177896410697,-25.603270337131004
3400,-41.52172758418093,-21.500668366877104,-6.297396147968661,-11.756398648277479,-13.139902158600458,-25.416988058740294
3404,-41.55817148044138,-21.66822669977819,-6.355904819454584,-11.669086460242342,-13.07247468813164,-25.198595357702093
3408,-41.533379965539325,-21.80190166260258,-6.36018858525147,-11.598714837893734,-12.988413126717505,-24.957352407925168
3412,-41.44738014920763,-21.896660445835636,-6.309795654759474,-11.551474791664385,-12.897391772021153,-24.702484715026635
3416,-41.302326222869056,-21.948388156898165,-6.2074873508768915,-11.531674158264053,-12.809405327355005,-24.442760628743326
3420,-41.10267913548066,-21.954071167988108,-6.059401552757625,-11.54179504878017,-12.734109713526315,-24.186000288456015
3424,-40.854996468702716,-21.911656863837056,-5.87465715145597,-11.582282688613471,-12.679899679640874,-23.93849881661211
3428,-40.567389517196716,-21.819745557151712,-5.6645001854312955,-11.651182108714734,-12.652957206357478,-23.70456071524632
3432,-40.248897010386194,-21.677418069390544,-5.4412903042913685,-11.743884274631005,-12.65657163569478,-23.48637254670996
3436,-39.908928266242356,-21.48433635494208,-5.217512160268312,-11.85309295017788,-12.690816622469573,-23.284229430573735
3440,-39.55672578702811,-21.24099868388111,-5.004799126618569,-11.968927871158076,-12.752452229759724,-23.096933080175198
3444,-39.20079198704789,-20.948992036862077,-4.812980387015003,-12.079120998659686,-12.834961888608587,-22.922218522184462
3448,-38.84841188065516,-20.611241796050255,-4.649353323258219,-12.169458782877715,-12.928826088355322,-22.757236348149917
3452,-38.50548161544136,-20.232317819863894,-4.5184130827631295,-12.224646586388161,-13.022166576827619,-22.599142184821886
3456,-38.17666065227498,-19.81868713058905,-4.422019044835044,-12.229520790933586,-13.10169384821632,-22.44567492218673
3460,-37.86562103006355,-19.378641111928687,-4.3597196862639205,-12.170294078198372,-13.153722145259856,-22.295488343565363
3464,-37.575172911745916,-18.92174224673607,-4.328997763640943,-12.035577630249701,-13.165106436450147,-22.148137515920965
3468,-37.30727731199768,-18.4579521534669,-4.325461739630431,-11.817184914912831,-13.12417310781591,-22.003878563020145
3472,-37.06310050208359,-17.99677086905175,-4.34314798686729,-11.510840902226782,-13.021750285689015,-21.863518104662504
3476,-36.84314512397816,-17.546572079798164,-4.374956598471402,-11.116766554243622,-12.85219384794583,-21.72837458731289
3480,-36.64730877543897,-17.11409136015616,-4.4130584300459486,-10.63992836204991,-12.614128343040786,-21.60023392196894
3484,-36.47475956511278,-16.7040200139939,-4.449168830496688,-10.089812727322121,-12.310717345826271,-21.4812203787153
3488,-36.32374683005615,-16.318835334955438,-4.47480943599443,-9.47982418337468,-11.949521404534599,-21.37366032170991
3492,-36.19157044607718,-15.959041095182961,-4.481739794255423,-8.826493131089409,-11.542085328081878,-21.280025875025657
3496,-36.07476076955356,-15.623767538025866,-4.462525409584566,-8.148513907603121,-11.103257792072839,-21.20287350174455
3500,-35.96929914416989,-15.311442234080472,-4.411002126871244,-7.4654910836460715,-10.65014508343932,-21.14459625275779
3504,-35.87072936187519,-15.020289746531464,-4.322484183368416,-6.796409497868005,-10.200742303598902,-21.10696972864483
3508,-35.7742319687392,-14.748683221409935,-4.193834626027077,-6.158129505955735,-9.772523244990776,-21.090721987631795
3512,-35.674842007872776,-14.495508766902427,-4.023616842812562,-5.564285937682729,-9.381297766979769,-21.095386813086034
3516,-35.56783157212528,-14.260548052951782,-3.812352611460498,-5.024731466005349,-9.04041041224801,-21.119465872208274
3520,-35.449064997298976,-14.044669522108869,-3.56269408896641,-4.545396699329682,-8.760137307992192,-21.160709960193167
3524,-35.31515654603559,-13.849655161674615,-3.2793668848102455,-4.128432210184687,-8.547185449990472,-21.216366311679224
3528,-35.163485607148,-13.677738194347903,-2.96897668517483,-3.7726673072662575,-8.404392864094689,-21.2834156640799
3532,-34.992241827448375,-13.531059979025327,-2.639854761203107,-3.474445441004834,-8.33076236131396,-21.35886005625572
3536,-34.80052892927683,-13.411125753212811,-2.3019337388449865,-3.2286892858216363,-8.321776269805312,-21.43997639981675
3540,-34.58837630817496,-13.31818599383583,-1.9664661814612538,-3.0298875675113615,-8.369805714914987,-21.524369321192037
3544,-34.35657680840811,-13.250564182688398,-1.6454953545188928,-2.8728239809452325,-8.464553407953359,-21.6098113728871
3548,-34.10651610134517,-13.204196937173434,-1.3512435820377193,-2.7531376396226324,-8.593694359374526,-21.69408456514501
3552,-33.84024011795986,-13.17270006732983,-1.0956506055601467,-2.6678667840208306,-8.743887605731434,-21.77504572579009
3556,-33.56078112989656,-13.148000485517844,-0.8900691018602219,-2.6159090140308425,-8.902074755696892,-21.850904810961232
3560,-33.272492116759324,-13.121266685847248,-0.7448942873232431,-2.5981372906072404,-9.05674672324577,-21.920507718788066
3564,-32.98114083352352,-13.083857240189808,-0.6689645257226577,-2.6170204293920407,-9.198901997429786,-21.98347310334284
3568,-32.693753204478035,-13.028226502114073,-0.6688318115149071,-2.6758893448433088,-9.322635861987292,-22.040226253294936
3572,-32.41834853431841,-12.948833480825956,-0.74812333976073,-2.778112379524757,-9.425394770921166,-22.09202226295902
3576,-32.16360876324004,-12.84295299187419,-0.9070748606407955,-2.926292577281522,-9.507836249961853,-22.14091322835279
3580,-31.938374521080505,-12.711141113802393,-1.1421681103671284,-3.1214534309099746,-9.57319543243819,-22.189537400424367
3584,-31.750936300881754,-12.55723286348041,-1.445904369030444,-3.362283878872373,-9.626255282952428,-22.24075792996671
3588,-31.608328342877105,-12.388040085413936,-1.8069676976223639,-3.644723961468822,-9.672279337734222,-22.29738483905018
3592,-31.515908026370106,-12.213016836781819,-2.211024522160265,-3.9621514496967194,-9.716281914567567,-22.362195391627985
3596,-31.477278771191905,-12.043948830744432,-2.6420880697233007,-4.3061205766749495,-9.762740343952888,-22.438217478394687
3600,-31.494346365445754,-11.894484167960801,-3.0840697905014753,-4.667330400063197,-9.81558785994137,-22.5290413291049
3604,-31.567299082562283,-11.779361557739065,-3.522158667561279,-5.036547367803005,-9.87831852648559,-22.6389838379773
3608,-31.694529107102095,-11.713437042813423,-3.943914433988572,-5.405446970150569,-9.954189953740233,-22.773115191257087
3612,-31.87264391968239,-11.710722426147157,-4.340083031351596,-5.767417486474884,-10.046538531676028,-22.9371945307774
3616,-32.09659524661939,-11.783496073707894,-4.705033732400076,-6.118196426790679,-10.159067168919709,-23.137421233473056
3620,-32.359794645820216,-11.941379890516423,-5.036638965367149,-6.456080113555499,-10.295878057558747,-23.379843972565787
3624,-32.65415419985988,-12.190365181001148,-5.335601172385816,-6.781608740254611,-10.461185017274671,-23.669445031216558
3628,-32.970215526279446,-12.53201463289132,-5.604525618296855,-7.096932264227395,-10.658882759060171,-24.00916067399566
3632,-33.29759300517341,-12.96312713633607,-5.847102394128134,-7.405156669407605,-10.892179057870946,-24.3991272400165
3636,-33.62573747770525,-13.475915204477062,-6.067521023669712,-7.709774711632089,-11.16329558840092,-24.83624088683685
3640,-33.94477558344946,-14.058487819238477,-6.269990232918486,-8.014086149901335,-11.473098699805073,-25.31395203370694
3644,-34.24618960634083,-14.695451692613219,-6.458251863948147,-8.320571759159513,-11.82063247993694,-25.822272735339528
3648,-34.52332300204813,-15.368668546250735,-6.635175560450354,-8.630393969372129,-12.202742605930856,-26.348121983450998
3652,-34.771815138339726,-16.058300967175352,-6.802587883560895,-8.943235357058704,-12.614004671313465,-26.876107351923586
3656,-34.989944438008756,-16.744106403411745,-6.961323752987666,-9.257474435967906,-13.04696584610896,-27.389625463306828
3660,-35.178710883104586,-17.406738426730453,-7.111333176305749,-9.570507293807463,-13.492543058400651,-27.872021210406768
3664,-35.341571699037004,-18.02885811894523,-7.251763333172397,-9.87908641141645,-13.940490423423315,-28.307648754690476
3668,-35.483973495724605,-18.59605805371982,-7.381137231545969,-10.179726418332507,-14.37999767552794,-28.682859375595072
3672,-35.61288701503584,-19.097640981739694,-7.497750507736863,-10.469217719861204,-14.8004345273177,-28.986932914478913
3676,-35.73634964930533,-19.527105334953326,-7.600165323308688,-10.745076079858265,-15.192035697791098,-29.212787581185463
3680,-35.86282571484673,-19.882067397903057,-7.687510565289752,-11.005653095239868,-15.546242871497148,-29.357234278715314
3684,-36.00028372863482,-20.16354205690765,-7.759449419409098,-11.249846048847385,-15.855653271732299,-29.420741511853485
3688,-36.155172330887616,-20.37484804696237,-7.815985274886032,-11.47666720452858,-16.11383698722847,-29.406942611902156
3692,-36.33160596546646,-20.52053002443773,-7.857378876796681,-11.684992432290466,-16.315326327535537,-29.322148984305453
3696,-36.53090478489239,-20.60549887128006,-7.884252212885624,-11.87355729785221,-16.455831103379385,-29.174926537089746
3700,-36.751411243819454,-20.634364351009975,-7.897742184948579,-12.04103530711256,-16.532518074101947,-28.975630830924363
3704,-36.988509400055115,-20.610941241411417,-7.899597018260159,-12.186081932660485,-16.544242031336573,-28.73586312501979
3708,-37.234932585205314,-20.53805283908886,-7.892265063321353,-12.307414539325249,-16.491776912123505,-28.46795299463373
3712,-37.48145436358249,-20.417729787751146,-7.8790144099886215,-12.404000387639348,-16.378076960402502,-28.18454365592061
3716,-37.71782897585803,-20.251655044679374,-7.8639199739394225,-12.475216811656063,-16.208401897265368,-27.898172071332368
3720,-37.933655473077,-20.041537236193975,-7.851464708519307,-12.520741085970009,-15.990066954530286,-27.620665672153066
3724,-38.11894637120578,-19.789245124664518,-7.845723563226472,-12.540127130009973,-15.73180112419345,-27.362361425829626
3728,-38.26447241648404,-19.4968412615156,-7.849429302097189,-12.532329800877344,-15.442996269474357,-27.131392175996076
3732,-38.362087652652534,-19.166749427828066,-7.863295014945124,-12.495492953135688,-15.133164792184802,-26.933294174507317
3736,-38.40509353025016,-18.802089492036398,-7.885729696422255,-12.427081228484512,-14.811673630957358,-26.770971587013054
3740,-38.388522756586454,-18.407005175480606,-7.912844211100582,-12.324216289731657,-14.487606712731727,-26.64488566945798
3744,-38.30927536604435,-17.986862347193913,-7.938671134939666,-12.184114300040285,-14.169656271530211,-26.553389582353876
3748,-38.166238750626185,-17.548392285979773,-7.9556836219110485,-12.004669824793663,-13.866103004083296,-26.493253119219595
3752,-37.96056214961999,-17.099875526358414,-7.955674486997516,-11.785195026881986,-13.58492319680826,-26.460379246195703
3756,-37.69603823367127,-16.651249257749605,-7.9308086996907745,-11.527098748633094,-13.333856780390402,-26.450533383729155
3760,-37.37933383108529,-16.21387229458668,-7.874505770953446,-11.234192566615294,-13.120184074611027,-26.45984360882546
3764,-37.01987921385472,-15.799839831330864,-7.781975162514286,-10.912527457438804,-12.9501658096342,-26.485008094681923
3768,-36.629480719147374,-15.421054899421154,-7.650533752962267,-10.56997306562683,-12.828387679969957,-26.52336903103549
3772,-36.221838682810805,-15.088377912648111,-7.479911138334332,-10.21579983923461,-12.757285250942262,-26.57301705374936
3776,-35.812010653541776,-14.810986673385372,-7.272528702297895,-9.860290337545662,-12.736895437050569,-26.63289575099443
3780,-35.41569609568659,-14.595860278298534,-7.0335406123551145,-9.514221545494582,-12.764705998962333,-26.702756047453438
3784,-35.04828940420192,-14.44732548188131,-6.770517916196804,-9.188166891375086,-12.835567818237662,-26.782923361678225
3788,-34.723865815974186,-14.366780285570055,-6.4928980632463595,-8.891796812645936,-12.941819691673068,-26.874017031248663
3792,-34.454323776583436,-14.352728345307302,-6.211374179320248,-8.633375801483771,-13.073751260523093,-26.97674629560083
3796,-34.24872491651868,-14.401052729660039,-5.937214549129631,-8.419436570698164,-13.220306826708658,-27.09172284320036
3800,-34.112714432663616,-14.505307941942599,-5.681388212179837,-8.25447657509537,-13.369815617322486,-27.219151742606865
3804,-34.048005237888816,-14.656938583656073,-5.453540110828865,-8.140671471337539,-13.51068125828449,-27.358428278825563
3808,-34.05213257436341,-14.84558201550126,-5.261115313725931,-8.077825927293697,-13.63215813107312,-27.507871154573706
3812,-34.118703929383074,-15.059647254620037,-5.108933372509769,-8.063750909830828,-13.725293840269961,-27.664786333376824
3816,-34.238112094049654,-15.287126467965347,-4.999234696026769,-8.094969838449243,-13.783866791544849,-27.825810729714096
3820,-34.39844074953668,-15.516387349844091,-4.931988686223763,-8.167450441023476,-13.805023126044903,-27.987325425742295
3824,-34.58634455787805,-15.736770453829022,-4.905312071175554,-8.277157090079738,-13.789489742448374,-28.14581702329743
3828,-34.78792032370265,-15.939048715237217,-4.916037087226943,-8.420443354727492,-13.741488569438367,-28.298230348407927
3832,-34.9896665343563,-16.11586938818916,-4.960468276240365,-8.594341429517605,-13.668489144627719,-28.44234564591812
3836,-35.17945522512383,-16.26212268253911,-5.035150350377353,-8.796645105403613,-13.580741918714228,-28.577055089835206
3840,-35.34727828724563,-16.375051511928394,-5.137354126777213,-9.02563010650218,-13.490460211448909,-28.70236575292351
3844,-35.48563147466116,-16.454062305754015,-5.265176404021027,-9.27947808389311,-13.410721217769794,-28.819133128965564
3848,-35.58964808376072,-16.500455945134284,-5.417435805302245,-9.555733899275939,-13.354393933122731,-28.928726226775996
3852,-35.65717078501632,-16.51732807284215,-5.593586484275988,-9.851094665535275,-13.333359132020352,-29.03279392769313
3856,-35.68876961101675,-16.509631842793794,-5.7936434339246965,-10.16152121685027,-13.35800079984641,-29.133090830321407
3860,-35.68753718837305,-16.484165967806113,-6.017940404379657,-10.482435342087506,-13.436759655350347,-29.231212886960996
3864,-35.65856800283688,-16.4493156893343,-6.266657425440248,-10.808853255959802,-13.57564346578044,-29.328230077975757
3868,-35.60825962914723,-16.414605314165204,-6.539291552859351,-11.135525239291297,-13.777797544514687,-29.424394392310134
3872,-35.54365521204089,-16.3901848080789,-6.834268969454318,-11.457173409831725,-14.04325731830598,-29.519079323002163
3876,-35.47188949034655,-16.386208678499386,-7.148679737975022,-11.768729875191225,-14.368836847637178,-29.61089325139949
3880,-35.3996534923414,-16.411967784696976,-7.477977205570851,-12.065387692167542,-14.748034772927078,-29.697787557387038
3884,-35.33268052793192,-16.474820800007212,-7.815639801580027,-12.34246772616569,-15.171011435072094,-29.77710730933191
3888,-35.27545199667395,-16.5792519235501,-8.153048276494392,-12.595352928836538,-15.624895317974573,-29.845722449879727
3892,-35.23132001198313,-16.726398546789643,-8.479837139283424,-12.819717551683176,-16.094617973289047,-29.900362190488554
3896,-35.202987603785566,-16.914100452141103,-8.784700568382853,-13.011995748385212,-16.564182911314212,-29.938070999511023
3900,-35.19305888938842,-17.13725309877099,-9.05639484754921,-13.169838448331847,-17.01807026591094,-29.95658503721103
3904,-35.204423597994335,-17.38828214059499,-9.284733100091458,-13.292419751219468,-17.44255599560999,-29.954547644245228
3908,-35.240465044966605,-17.657765458630276,-9.461566815841644,-13.380680058688213,-17.826898400669407,-29.93166644633201
3912,-35.30517000981901,-17.935272800070468,-9.581770083303141,-13.4376039592907,-18.164338818422674,-29.88890675536929
3916,-35.403094521101806,-18.210305805339953,-9.644055086864888,-13.468427996181935,-18.452708783095684,-29.828642214874847
3920,-35.53904950797923,-18.47309706851733,-9.651355753413261,-13.480578844246265,-18.694421305489083,-29.754612350678403
3924,-35.71751727467358,-18.71518248402082,-9.610712635288031,-13.483326114467397,-18.895866978956946,-29.6716887023369
3928,-35.94204455585183,-18.92990974223255,-9.53286532338864,-13.487360633581774,-19.06649457582352,-29.585622126871897
3932,-36.21487577560964,-19.113051008393636,-9.431778586996764,-13.504464694462321,-19.217847523043254,-29.502893285532075
3936,-36.5368499141351,-19.263428901409952,-9.324092194007829,-13.547172545452458,-19.362603939630365,-29.430579049710424
3940,-36.90737042148907,-19.38326945417301,-9.228313772301446,-13.628178840623262,-19.51353727205543,-29.37605938478271
3944,-37.324308037284986,-19.478106437958598,-9.163686347647474,-13.759429111705455,-19.682429535152657,-29.346537837959183
3948,-37.7838975889313,-19.55632128275334,-9.148891700418828,-13.951099009666084,-19.879136601175226,-29.34853307071901
3952,-38.28074278578839,-19.62847795749275,-9.200787989695366,-14.210704494451145,-20.110962982090367,-29.38747640368786
3956,-38.80788195484017,-19.706452899635707,-9.3332063237975,-14.54237899647448,-20.382287043168937,-29.467366666833076
3960,-39.35675151257877,-19.802260706822917,-9.555739933086198,-14.946220873143508,-20.69427170226058,-29.590358091356357
3964,-39.91702085048053,-19.926644446953578,-9.872625410054999,-15.417742637083455,-21.04463417882588,-29.756305757608324
